%OpenBCI Raw EEG Data
%
%Sample Rate = 250.0 Hz
%First Column = SampleIndex
%Other Columns = EEG data in microvolts followed by Accel Data (in G) interleaved with Aux Data
0, -187500.02, -187500.02, -3304.01, -187500.02, -187500.02, -187500.02, -187500.02, -187500.02, -0.01, 0.00, 0.51
1, -187500.02, -187500.02, -3234.90, -187500.02, -187500.02, -187500.02, -187500.02, -187500.02, 0.00, 0.00, 0.00
2, -187500.02, -187500.02, -3181.93, -187500.02, -187500.02, -187500.02, -187500.02, -187500.02, 0.00, 0.00, 0.00
3, -187500.02, -187500.02, -3314.85, -187500.02, -187500.02, -187500.02, -187500.02, -187500.02, 0.00, 0.00, 0.00
4, -187500.02, -187500.02, -3343.51, -187500.02, -187500.02, -187500.02, -187500.02, -187500.02, 0.00, 0.00, 0.00
5, -187500.02, -187500.02, -3184.12, -187500.02, -187500.02, -187500.02, -187500.02, -187500.02, 0.00, 0.00, 0.00
6, -187500.02, -187500.02, -3187.54, -187500.02, -187500.02, -187500.02, -187500.02, -187500.02, 0.00, 0.00, 0.00
7, -187500.02, -187500.02, -3316.93, -187500.02, -187500.02, -187500.02, -187500.02, -187500.02, -0.02, 0.01, 1.03
8, -187500.02, -187500.02, -3278.13, -187500.02, -187500.02, -187500.02, -187500.02, -187500.02, 0.00, 0.00, 0.00
9, -187500.02, -187500.02, -3146.30, -187500.02, -187500.02, -187500.02, -187500.02, -187500.02, 0.00, 0.00, 0.00
10, -187500.02, -187500.02, -3074.75, -187500.02, -187500.02, -187500.02, -187500.02, -187500.02, 0.00, 0.00, 0.00
11, -187500.02, -187500.02, -3143.19, -187500.02, -187500.02, -187500.02, -187500.02, -187500.02, 0.00, 0.00, 0.00
12, -187500.02, -187500.02, -3301.17, -187500.02, -187500.02, -187500.02, -187500.02, -187500.02, 0.00, 0.00, 0.00
13, -187500.02, -187500.02, -3307.48, -187500.02, -187500.02, -187500.02, -187500.02, -187500.02, 0.00, 0.00, 0.00
14, -187500.02, -187500.02, -3213.96, -187500.02, -187500.02, -187500.02, -187500.02, -187500.02, 0.00, 0.00, 0.00
15, -187500.02, -187500.02, -3130.56, -187500.02, -187500.02, -187500.02, -187500.02, -187500.02, 0.00, 0.00, 0.00
16, -187500.02, -187500.02, -3226.00, -187500.02, -187500.02, -187500.02, -187500.02, -187500.02, 0.00, 0.00, 0.00
17, -187500.02, -187500.02, -3236.89, -187500.02, -187500.02, -187500.02, -187500.02, -187500.02, -0.02, 0.01, 1.03
18, -187500.02, -187500.02, -3152.91, -187500.02, -187500.02, -187500.02, -187500.02, -187500.02, 0.00, 0.00, 0.00
19, -187500.02, -187500.02, -3137.16, -187500.02, -187500.02, -187500.02, -187500.02, -187500.02, 0.00, 0.00, 0.00
20, -187500.02, -187500.02, -3266.35, -187500.02, -187500.02, -187500.02, -187500.02, -187500.02, 0.00, 0.00, 0.00
21, -187500.02, -187500.02, -3267.36, -187500.02, -187500.02, -187500.02, -187500.02, -187500.02, 0.00, 0.00, 0.00
22, -187500.02, -187500.02, -3254.24, -187500.02, -187500.02, -187500.02, -187500.02, -187500.02, 0.00, 0.00, 0.00
23, -187500.02, -187500.02, -3219.68, -187500.02, -187500.02, -187500.02, -187500.02, -187500.02, 0.00, 0.00, 0.00
24, -187500.02, -187500.02, -3230.45, -187500.02, -187500.02, -187500.02, -187500.02, -187500.02, 0.00, 0.00, 0.00
25, -187500.02, -187500.02, -3240.71, -187500.02, -187500.02, -187500.02, -187500.02, -187500.02, 0.00, 0.00, 0.00
26, -187500.02, -187500.02, -3213.20, -187500.02, -187500.02, -187500.02, -187500.02, -187500.02, 0.00, 0.00, 0.00
27, -187500.02, -187500.02, -3192.92, -187500.02, -187500.02, -187500.02, -187500.02, -187500.02, -0.02, 0.01, 1.03
28, -187500.02, -187500.02, -3219.14, -187500.02, -187500.02, -187500.02, -187500.02, -187500.02, 0.00, 0.00, 0.00
29, -187500.02, -187500.02, -3220.98, -187500.02, -187500.02, -187500.02, -187500.02, -187500.02, 0.00, 0.00, 0.00
30, -187500.02, -187500.02, -3183.29, -187500.02, -187500.02, -187500.02, -187500.02, -187500.02, 0.00, 0.00, 0.00
31, -187500.02, -187500.02, -3141.74, -187500.02, -187500.02, -187500.02, -187500.02, -187500.02, 0.00, 0.00, 0.00
32, -187500.02, -187500.02, -3253.94, -187500.02, -187500.02, -187500.02, -187500.02, -187500.02, 0.00, 0.00, 0.00
33, -187500.02, -187500.02, -3351.53, -187500.02, -187500.02, -187500.02, -187500.02, -187500.02, 0.00, 0.00, 0.00
34, -187500.02, -187500.02, -3225.56, -187500.02, -187500.02, -187500.02, -187500.02, -187500.02, 0.00, 0.00, 0.00
35, -187500.02, -187500.02, -3130.29, -187500.02, -187500.02, -187500.02, -187500.02, -187500.02, 0.00, 0.00, 0.00
36, -187500.02, -187500.02, -3187.74, -187500.02, -187500.02, -187500.02, -187500.02, -187500.02, 0.00, 0.00, 0.00
37, -187500.02, -187500.02, -3265.30, -187500.02, -187500.02, -187500.02, -187500.02, -187500.02, -0.02, 0.01, 1.03
38, -187500.02, -187500.02, -3242.66, -187500.02, -187500.02, -187500.02, -187500.02, -187500.02, 0.00, 0.00, 0.00
39, -187500.02, -187500.02, -3192.28, -187500.02, -187500.02, -187500.02, -187500.02, -187500.02, 0.00, 0.00, 0.00
40, -187500.02, -187500.02, -3191.69, -187500.02, -187500.02, -187500.02, -187500.02, -187500.02, 0.00, 0.00, 0.00
41, -187500.02, -187500.02, -3271.54, -187500.02, -187500.02, -187500.02, -187500.02, -187500.02, 0.00, 0.00, 0.00
42, -187500.02, -187500.02, -3254.61, -187500.02, -187500.02, -187500.02, -187500.02, -187500.02, 0.00, 0.00, 0.00
43, -187500.02, -187500.02, -3215.95, -187500.02, -187500.02, -187500.02, -187500.02, -187500.02, 0.00, 0.00, 0.00
44, -187500.02, -187500.02, -3158.46, -187500.02, -187500.02, -187500.02, -187500.02, -187500.02, 0.00, 0.00, 0.00
45, -187500.02, -187500.02, -3257.23, -187500.02, -187500.02, -187500.02, -187500.02, -187500.02, 0.00, 0.00, 0.00
46, -187500.02, -187500.02, -3239.26, -187500.02, -187500.02, -187500.02, -187500.02, -187500.02, 0.00, 0.00, 0.00
47, -187500.02, -187500.02, -3175.38, -187500.02, -187500.02, -187500.02, -187500.02, -187500.02, -0.02, 0.02, 1.03
48, -187500.02, -187500.02, -3141.81, -187500.02, -187500.02, -187500.02, -187500.02, -187500.02, 0.00, 0.00, 0.00
49, -187500.02, -187500.02, -3261.07, -187500.02, -187500.02, -187500.02, -187500.02, -187500.02, 0.00, 0.00, 0.00
50, -187500.02, -187500.02, -3275.29, -187500.02, -187500.02, -187500.02, -187500.02, -187500.02, 0.00, 0.00, 0.00
51, -187500.02, -187500.02, -3227.66, -187500.02, -187500.02, -187500.02, -187500.02, -187500.02, 0.00, 0.00, 0.00
52, -187500.02, -187500.02, -3191.11, -187500.02, -187500.02, -187500.02, -187500.02, -187500.02, 0.00, 0.00, 0.00
53, -187500.02, -187500.02, -3250.44, -187500.02, -187500.02, -187500.02, -187500.02, -187500.02, 0.00, 0.00, 0.00
54, -187500.02, -187500.02, -3239.80, -187500.02, -187500.02, -187500.02, -187500.02, -187500.02, 0.00, 0.00, 0.00
55, -187500.02, -187500.02, -3165.03, -187500.02, -187500.02, -187500.02, -187500.02, -187500.02, 0.00, 0.00, 0.00
56, -187500.02, -187500.02, -3133.20, -187500.02, -187500.02, -187500.02, -187500.02, -187500.02, 0.00, 0.00, 0.00
57, -187500.02, -187500.02, -3196.79, -187500.02, -187500.02, -187500.02, -187500.02, -187500.02, 0.00, 0.00, 0.00
58, -187500.02, -187500.02, -3275.85, -187500.02, -187500.02, -187500.02, -187500.02, -187500.02, -0.02, 0.01, 1.02
59, -187500.02, -187500.02, -3228.11, -187500.02, -187500.02, -187500.02, -187500.02, -187500.02, 0.00, 0.00, 0.00
60, -187500.02, -187500.02, -3164.69, -187500.02, -187500.02, -187500.02, -187500.02, -187500.02, 0.00, 0.00, 0.00
61, -187500.02, -187500.02, -3239.73, -187500.02, -187500.02, -187500.02, -187500.02, -187500.02, 0.00, 0.00, 0.00
62, -187500.02, -187500.02, -3386.11, -187500.02, -187500.02, -187500.02, -187500.02, -187500.02, 0.00, 0.00, 0.00
63, -187500.02, -187500.02, -3273.59, -187500.02, -187500.02, -187500.02, -187500.02, -187500.02, 0.00, 0.00, 0.00
64, -187500.02, -187500.02, -3143.28, -187500.02, -187500.02, -187500.02, -187500.02, -187500.02, 0.00, 0.00, 0.00
65, -187500.02, -187500.02, -3158.35, -187500.02, -187500.02, -187500.02, -187500.02, -187500.02, 0.00, 0.00, 0.00
66, -187500.02, -187500.02, -3272.76, -187500.02, -187500.02, -187500.02, -187500.02, -187500.02, 0.00, 0.00, 0.00
67, -187500.02, -187500.02, -3189.24, -187500.02, -187500.02, -187500.02, -187500.02, -187500.02, 0.00, 0.00, 0.00
68, -187500.02, -187500.02, -3180.88, -187500.02, -187500.02, -187500.02, -187500.02, -187500.02, -0.02, 0.01, 1.03
69, -187500.02, -187500.02, -3183.31, -187500.02, -187500.02, -187500.02, -187500.02, -187500.02, 0.00, 0.00, 0.00
70, -187500.02, -187500.02, -3230.01, -187500.02, -187500.02, -187500.02, -187500.02, -187500.02, 0.00, 0.00, 0.00
71, -187500.02, -187500.02, -3254.93, -187500.02, -187500.02, -187500.02, -187500.02, -187500.02, 0.00, 0.00, 0.00
72, -187500.02, -187500.02, -3223.14, -187500.02, -187500.02, -187500.02, -187500.02, -187500.02, 0.00, 0.00, 0.00
73, -187500.02, -187500.02, -3153.70, -187500.02, -187500.02, -187500.02, -187500.02, -187500.02, 0.00, 0.00, 0.00
74, -187500.02, -187500.02, -3247.64, -187500.02, -187500.02, -187500.02, -187500.02, -187500.02, 0.00, 0.00, 0.00
75, -187500.02, -187500.02, -3247.48, -187500.02, -187500.02, -187500.02, -187500.02, -187500.02, 0.00, 0.00, 0.00
76, -187500.02, -187500.02, -3143.80, -187500.02, -187500.02, -187500.02, -187500.02, -187500.02, 0.00, 0.00, 0.00
77, -187500.02, -187500.02, -3117.20, -187500.02, -187500.02, -187500.02, -187500.02, -187500.02, 0.00, 0.00, 0.00
78, -187500.02, -187500.02, -3215.05, -187500.02, -187500.02, -187500.02, -187500.02, -187500.02, -0.02, 0.01, 1.02
79, -187500.02, -187500.02, -3270.35, -187500.02, -187500.02, -187500.02, -187500.02, -187500.02, 0.00, 0.00, 0.00
80, -187500.02, -187500.02, -3208.24, -187500.02, -187500.02, -187500.02, -187500.02, -187500.02, 0.00, 0.00, 0.00
81, -187500.02, -187500.02, -3134.25, -187500.02, -187500.02, -187500.02, -187500.02, -187500.02, 0.00, 0.00, 0.00
82, -187500.02, -187500.02, -3201.44, -187500.02, -187500.02, -187500.02, -187500.02, -187500.02, 0.00, 0.00, 0.00
83, -187500.02, -187500.02, -3297.69, -187500.02, -187500.02, -187500.02, -187500.02, -187500.02, 0.00, 0.00, 0.00
84, -187500.02, -187500.02, -3244.15, -187500.02, -187500.02, -187500.02, -187500.02, -187500.02, 0.00, 0.00, 0.00
85, -187500.02, -187500.02, -3164.60, -187500.02, -187500.02, -187500.02, -187500.02, -187500.02, 0.00, 0.00, 0.00
86, -187500.02, -187500.02, -3154.14, -187500.02, -187500.02, -187500.02, -187500.02, -187500.02, 0.00, 0.00, 0.00
87, -187500.02, -187500.02, -3283.11, -187500.02, -187500.02, -187500.02, -187500.02, -187500.02, 0.00, 0.00, 0.00
88, -187500.02, -187500.02, -3244.69, -187500.02, -187500.02, -187500.02, -187500.02, -187500.02, -0.02, 0.01, 1.02
89, -187500.02, -187500.02, -3155.93, -187500.02, -187500.02, -187500.02, -187500.02, -187500.02, 0.00, 0.00, 0.00
90, -187500.02, -187500.02, -3173.50, -187500.02, -187500.02, -187500.02, -187500.02, -187500.02, 0.00, 0.00, 0.00
91, -187500.02, -187500.02, -3310.14, -187500.02, -187500.02, -187500.02, -187500.02, -187500.02, 0.00, 0.00, 0.00
92, -187500.02, -187500.02, -3314.96, -187500.02, -187500.02, -187500.02, -187500.02, -187500.02, 0.00, 0.00, 0.00
93, -187500.02, -187500.02, -3247.42, -187500.02, -187500.02, -187500.02, -187500.02, -187500.02, 0.00, 0.00, 0.00
94, -187500.02, -187500.02, -3096.74, -187500.02, -187500.02, -187500.02, -187500.02, -187500.02, 0.00, 0.00, 0.00
95, -187500.02, -187500.02, -3206.78, -187500.02, -187500.02, -187500.02, -187500.02, -187500.02, 0.00, 0.00, 0.00
96, -187500.02, -187500.02, -3243.48, -187500.02, -187500.02, -187500.02, -187500.02, -187500.02, 0.00, 0.00, 0.00
97, -187500.02, -187500.02, -3197.39, -187500.02, -187500.02, -187500.02, -187500.02, -187500.02, 0.00, 0.00, 0.00
98, -187500.02, -187500.02, -3169.34, -187500.02, -187500.02, -187500.02, -187500.02, -187500.02, -0.02, 0.01, 1.03
99, -187500.02, -187500.02, -3246.79, -187500.02, -187500.02, -187500.02, -187500.02, -187500.02, 0.00, 0.00, 0.00
100, -187500.02, -187500.02, -3268.96, -187500.02, -187500.02, -187500.02, -187500.02, -187500.02, 0.00, 0.00, 0.00
101, -187500.02, -187500.02, -3185.21, -187500.02, -187500.02, -187500.02, -187500.02, -187500.02, 0.00, 0.00, 0.00
102, -187500.02, -187500.02, -3139.77, -187500.02, -187500.02, -187500.02, -187500.02, -187500.02, 0.00, 0.00, 0.00
103, -187500.02, -187500.02, -3245.94, -187500.02, -187500.02, -187500.02, -187500.02, -187500.02, 0.00, 0.00, 0.00
104, -187500.02, -187500.02, -3318.65, -187500.02, -187500.02, -187500.02, -187500.02, -187500.02, 0.00, 0.00, 0.00
105, -187500.02, -187500.02, -3199.12, -187500.02, -187500.02, -187500.02, -187500.02, -187500.02, 0.00, 0.00, 0.00
106, -187500.02, -187500.02, -3134.18, -187500.02, -187500.02, -187500.02, -187500.02, -187500.02, 0.00, 0.00, 0.00
107, -187500.02, -187500.02, -3161.07, -187500.02, -187500.02, -187500.02, -187500.02, -187500.02, 0.00, 0.00, 0.00
108, -187500.02, -187500.02, -3258.41, -187500.02, -187500.02, -187500.02, -187500.02, -187500.02, -0.01, 0.01, 1.03
109, -187500.02, -187500.02, -3225.24, -187500.02, -187500.02, -187500.02, -187500.02, -187500.02, 0.00, 0.00, 0.00
110, -187500.02, -187500.02, -3148.04, -187500.02, -187500.02, -187500.02, -187500.02, -187500.02, 0.00, 0.00, 0.00
111, -187500.02, -187500.02, -3147.46, -187500.02, -187500.02, -187500.02, -187500.02, -187500.02, 0.00, 0.00, 0.00
112, -187500.02, -187500.02, -3281.15, -187500.02, -187500.02, -187500.02, -187500.02, -187500.02, 0.00, 0.00, 0.00
113, -187500.02, -187500.02, -3246.64, -187500.02, -187500.02, -187500.02, -187500.02, -187500.02, 0.00, 0.00, 0.00
114, -187500.02, -187500.02, -3167.04, -187500.02, -187500.02, -187500.02, -187500.02, -187500.02, 0.00, 0.00, 0.00
115, -187500.02, -187500.02, -3168.56, -187500.02, -187500.02, -187500.02, -187500.02, -187500.02, 0.00, 0.00, 0.00
116, -187500.02, -187500.02, -3293.10, -187500.02, -187500.02, -187500.02, -187500.02, -187500.02, 0.00, 0.00, 0.00
117, -187500.02, -187500.02, -3263.06, -187500.02, -187500.02, -187500.02, -187500.02, -187500.02, 0.00, 0.00, 0.00
118, -187500.02, -187500.02, -3195.63, -187500.02, -187500.02, -187500.02, -187500.02, -187500.02, 0.00, 0.00, 0.00
119, -187500.02, -187500.02, -3143.12, -187500.02, -187500.02, -187500.02, -187500.02, -187500.02, -0.02, 0.01, 1.03
120, -187500.02, -187500.02, -3226.94, -187500.02, -187500.02, -187500.02, -187500.02, -187500.02, 0.00, 0.00, 0.00
121, -187500.02, -187500.02, -3267.76, -187500.02, -187500.02, -187500.02, -187500.02, -187500.02, 0.00, 0.00, 0.00
122, -187500.02, -187500.02, -3210.76, -187500.02, -187500.02, -187500.02, -187500.02, -187500.02, 0.00, 0.00, 0.00
123, -187500.02, -187500.02, -3201.35, -187500.02, -187500.02, -187500.02, -187500.02, -187500.02, 0.00, 0.00, 0.00
124, -187500.02, -187500.02, -3332.71, -187500.02, -187500.02, -187500.02, -187500.02, -187500.02, 0.00, 0.00, 0.00
125, -187500.02, -187500.02, -3352.65, -187500.02, -187500.02, -187500.02, -187500.02, -187500.02, 0.00, 0.00, 0.00
126, -187500.02, -187500.02, -3180.03, -187500.02, -187500.02, -187500.02, -187500.02, -187500.02, 0.00, 0.00, 0.00
127, -187500.02, -187500.02, -3104.86, -187500.02, -187500.02, -187500.02, -187500.02, -187500.02, 0.00, 0.00, 0.00
128, -187500.02, -187500.02, -3167.94, -187500.02, -187500.02, -187500.02, -187500.02, -187500.02, 0.00, 0.00, 0.00
129, -187500.02, -187500.02, -3221.56, -187500.02, -187500.02, -187500.02, -187500.02, -187500.02, -0.01, 0.01, 1.04
130, -187500.02, -187500.02, -3180.30, -187500.02, -187500.02, -187500.02, -187500.02, -187500.02, 0.00, 0.00, 0.00
131, -187500.02, -187500.02, -3123.92, -187500.02, -187500.02, -187500.02, -187500.02, -187500.02, 0.00, 0.00, 0.00
132, -187500.02, -187500.02, -3186.11, -187500.02, -187500.02, -187500.02, -187500.02, -187500.02, 0.00, 0.00, 0.00
133, -187500.02, -187500.02, -3275.56, -187500.02, -187500.02, -187500.02, -187500.02, -187500.02, 0.00, 0.00, 0.00
134, -187500.02, -187500.02, -3236.04, -187500.02, -187500.02, -187500.02, -187500.02, -187500.02, 0.00, 0.00, 0.00
135, -187500.02, -187500.02, -3189.75, -187500.02, -187500.02, -187500.02, -187500.02, -187500.02, 0.00, 0.00, 0.00
136, -187500.02, -187500.02, -3151.71, -187500.02, -187500.02, -187500.02, -187500.02, -187500.02, 0.00, 0.00, 0.00
137, -187500.02, -187500.02, -3254.84, -187500.02, -187500.02, -187500.02, -187500.02, -187500.02, 0.00, 0.00, 0.00
138, -187500.02, -187500.02, -3252.49, -187500.02, -187500.02, -187500.02, -187500.02, -187500.02, 0.00, 0.00, 0.00
139, -187500.02, -187500.02, -3181.39, -187500.02, -187500.02, -187500.02, -187500.02, -187500.02, -0.01, 0.01, 1.03
140, -187500.02, -187500.02, -3155.19, -187500.02, -187500.02, -187500.02, -187500.02, -187500.02, 0.00, 0.00, 0.00
141, -187500.02, -187500.02, -3264.29, -187500.02, -187500.02, -187500.02, -187500.02, -187500.02, 0.00, 0.00, 0.00
142, -187500.02, -187500.02, -3271.22, -187500.02, -187500.02, -187500.02, -187500.02, -187500.02, 0.00, 0.00, 0.00
143, -187500.02, -187500.02, -3200.68, -187500.02, -187500.02, -187500.02, -187500.02, -187500.02, 0.00, 0.00, 0.00
144, -187500.02, -187500.02, -3177.88, -187500.02, -187500.02, -187500.02, -187500.02, -187500.02, 0.00, 0.00, 0.00
145, -187500.02, -187500.02, -3323.46, -187500.02, -187500.02, -187500.02, -187500.02, -187500.02, 0.00, 0.00, 0.00
146, -187500.02, -187500.02, -3319.73, -187500.02, -187500.02, -187500.02, -187500.02, -187500.02, 0.00, 0.00, 0.00
147, -187500.02, -187500.02, -3169.30, -187500.02, -187500.02, -187500.02, -187500.02, -187500.02, 0.00, 0.00, 0.00
148, -187500.02, -187500.02, -3097.33, -187500.02, -187500.02, -187500.02, -187500.02, -187500.02, 0.00, 0.00, 0.00
149, -187500.02, -187500.02, -3204.06, -187500.02, -187500.02, -187500.02, -187500.02, -187500.02, -0.02, 0.02, 1.03
150, -187500.02, -187500.02, -3272.14, -187500.02, -187500.02, -187500.02, -187500.02, -187500.02, 0.00, 0.00, 0.00
151, -187500.02, -187500.02, -3204.17, -187500.02, -187500.02, -187500.02, -187500.02, -187500.02, 0.00, 0.00, 0.00
152, -187500.02, -187500.02, -3147.59, -187500.02, -187500.02, -187500.02, -187500.02, -187500.02, 0.00, 0.00, 0.00
153, -187500.02, -187500.02, -3200.01, -187500.02, -187500.02, -187500.02, -187500.02, -187500.02, 0.00, 0.00, 0.00
154, -187500.02, -187500.02, -3302.85, -187500.02, -187500.02, -187500.02, -187500.02, -187500.02, 0.00, 0.00, 0.00
155, -187500.02, -187500.02, -3286.47, -187500.02, -187500.02, -187500.02, -187500.02, -187500.02, 0.00, 0.00, 0.00
156, -187500.02, -187500.02, -3199.74, -187500.02, -187500.02, -187500.02, -187500.02, -187500.02, 0.00, 0.00, 0.00
157, -187500.02, -187500.02, -3160.83, -187500.02, -187500.02, -187500.02, -187500.02, -187500.02, 0.00, 0.00, 0.00
158, -187500.02, -187500.02, -3280.99, -187500.02, -187500.02, -187500.02, -187500.02, -187500.02, 0.00, 0.00, 0.00
159, -187500.02, -187500.02, -3254.79, -187500.02, -187500.02, -187500.02, -187500.02, -187500.02, -0.01, 0.02, 1.03
160, -187500.02, -187500.02, -3154.55, -187500.02, -187500.02, -187500.02, -187500.02, -187500.02, 0.00, 0.00, 0.00
161, -187500.02, -187500.02, -3159.42, -187500.02, -187500.02, -187500.02, -187500.02, -187500.02, 0.00, 0.00, 0.00
162, -187500.02, -187500.02, -3288.21, -187500.02, -187500.02, -187500.02, -187500.02, -187500.02, 0.00, 0.00, 0.00
163, -187500.02, -187500.02, -3288.01, -187500.02, -187500.02, -187500.02, -187500.02, -187500.02, 0.00, 0.00, 0.00
164, -187500.02, -187500.02, -3229.40, -187500.02, -187500.02, -187500.02, -187500.02, -187500.02, 0.00, 0.00, 0.00
165, -187500.02, -187500.02, -3130.67, -187500.02, -187500.02, -187500.02, -187500.02, -187500.02, 0.00, 0.00, 0.00
166, -187500.02, -187500.02, -3225.58, -187500.02, -187500.02, -187500.02, -187500.02, -187500.02, 0.00, 0.00, 0.00
167, -187500.02, -187500.02, -3256.92, -187500.02, -187500.02, -187500.02, -187500.02, -187500.02, 0.00, 0.00, 0.00
168, -187500.02, -187500.02, -3207.18, -187500.02, -187500.02, -187500.02, -187500.02, -187500.02, 0.00, 0.00, 0.00
169, -187500.02, -187500.02, -3152.36, -187500.02, -187500.02, -187500.02, -187500.02, -187500.02, -0.02, 0.02, 1.03
170, -187500.02, -187500.02, -3254.46, -187500.02, -187500.02, -187500.02, -187500.02, -187500.02, 0.00, 0.00, 0.00
171, -187500.02, -187500.02, -3278.58, -187500.02, -187500.02, -187500.02, -187500.02, -187500.02, 0.00, 0.00, 0.00
172, -187500.02, -187500.02, -3198.24, -187500.02, -187500.02, -187500.02, -187500.02, -187500.02, 0.00, 0.00, 0.00
173, -187500.02, -187500.02, -3129.07, -187500.02, -187500.02, -187500.02, -187500.02, -187500.02, 0.00, 0.00, 0.00
174, -187500.02, -187500.02, -3209.00, -187500.02, -187500.02, -187500.02, -187500.02, -187500.02, 0.00, 0.00, 0.00
175, -187500.02, -187500.02, -3292.14, -187500.02, -187500.02, -187500.02, -187500.02, -187500.02, 0.00, 0.00, 0.00
176, -187500.02, -187500.02, -3247.51, -187500.02, -187500.02, -187500.02, -187500.02, -187500.02, 0.00, 0.00, 0.00
177, -187500.02, -187500.02, -3165.10, -187500.02, -187500.02, -187500.02, -187500.02, -187500.02, 0.00, 0.00, 0.00
178, -187500.02, -187500.02, -3182.33, -187500.02, -187500.02, -187500.02, -187500.02, -187500.02, 0.00, 0.00, 0.00
179, -187500.02, -187500.02, -3288.14, -187500.02, -187500.02, -187500.02, -187500.02, -187500.02, -0.01, 0.02, 1.03
180, -187500.02, -187500.02, -3259.44, -187500.02, -187500.02, -187500.02, -187500.02, -187500.02, 0.00, 0.00, 0.00
181, -187500.02, -187500.02, -3197.66, -187500.02, -187500.02, -187500.02, -187500.02, -187500.02, 0.00, 0.00, 0.00
182, -187500.02, -187500.02, -3180.50, -187500.02, -187500.02, -187500.02, -187500.02, -187500.02, 0.00, 0.00, 0.00
183, -187500.02, -187500.02, -3262.13, -187500.02, -187500.02, -187500.02, -187500.02, -187500.02, 0.00, 0.00, 0.00
184, -187500.02, -187500.02, -3238.25, -187500.02, -187500.02, -187500.02, -187500.02, -187500.02, 0.00, 0.00, 0.00
185, -187500.02, -187500.02, -3173.17, -187500.02, -187500.02, -187500.02, -187500.02, -187500.02, 0.00, 0.00, 0.00
186, -187500.02, -187500.02, -3170.06, -187500.02, -187500.02, -187500.02, -187500.02, -187500.02, 0.00, 0.00, 0.00
187, -187500.02, -187500.02, -3269.64, -187500.02, -187500.02, -187500.02, -187500.02, -187500.02, 0.00, 0.00, 0.00
188, -187500.02, -187500.02, -3258.55, -187500.02, -187500.02, -187500.02, -187500.02, -187500.02, 0.00, 0.00, 0.00
189, -187500.02, -187500.02, -3205.60, -187500.02, -187500.02, -187500.02, -187500.02, -187500.02, 0.00, 0.00, 0.00
190, -187500.02, -187500.02, -3176.72, -187500.02, -187500.02, -187500.02, -187500.02, -187500.02, -0.01, 0.02, 1.03
191, -187500.02, -187500.02, -3278.22, -187500.02, -187500.02, -187500.02, -187500.02, -187500.02, 0.00, 0.00, 0.00
192, -187500.02, -187500.02, -3268.52, -187500.02, -187500.02, -187500.02, -187500.02, -187500.02, 0.00, 0.00, 0.00
193, -187500.02, -187500.02, -3190.87, -187500.02, -187500.02, -187500.02, -187500.02, -187500.02, 0.00, 0.00, 0.00
194, -187500.02, -187500.02, -3144.40, -187500.02, -187500.02, -187500.02, -187500.02, -187500.02, 0.00, 0.00, 0.00
195, -187500.02, -187500.02, -3232.82, -187500.02, -187500.02, -187500.02, -187500.02, -187500.02, 0.00, 0.00, 0.00
196, -187500.02, -187500.02, -3298.47, -187500.02, -187500.02, -187500.02, -187500.02, -187500.02, 0.00, 0.00, 0.00
197, -187500.02, -187500.02, -3270.75, -187500.02, -187500.02, -187500.02, -187500.02, -187500.02, 0.00, 0.00, 0.00
198, -187500.02, -187500.02, -3199.29, -187500.02, -187500.02, -187500.02, -187500.02, -187500.02, 0.00, 0.00, 0.00
199, -187500.02, -187500.02, -3203.90, -187500.02, -187500.02, -187500.02, -187500.02, -187500.02, 0.00, 0.00, 0.00
200, -187500.02, -187500.02, -3314.52, -187500.02, -187500.02, -187500.02, -187500.02, -187500.02, -0.01, 0.02, 1.03
201, -187500.02, -187500.02, -3241.83, -187500.02, -187500.02, -187500.02, -187500.02, -187500.02, 0.00, 0.00, 0.00
202, -187500.02, -187500.02, -3101.10, -187500.02, -187500.02, -187500.02, -187500.02, -187500.02, 0.00, 0.00, 0.00
203, -187500.02, -187500.02, -3176.81, -187500.02, -187500.02, -187500.02, -187500.02, -187500.02, 0.00, 0.00, 0.00
204, -187500.02, -187500.02, -3271.16, -187500.02, -187500.02, -187500.02, -187500.02, -187500.02, 0.00, 0.00, 0.00
205, -187500.02, -187500.02, -3220.33, -187500.02, -187500.02, -187500.02, -187500.02, -187500.02, 0.00, 0.00, 0.00
206, -187500.02, -187500.02, -3152.80, -187500.02, -187500.02, -187500.02, -187500.02, -187500.02, 0.00, 0.00, 0.00
207, -187500.02, -187500.02, -3164.67, -187500.02, -187500.02, -187500.02, -187500.02, -187500.02, 0.00, 0.00, 0.00
208, -187500.02, -187500.02, -3283.61, -187500.02, -187500.02, -187500.02, -187500.02, -187500.02, 0.00, 0.00, 0.00
209, -187500.02, -187500.02, -3261.50, -187500.02, -187500.02, -187500.02, -187500.02, -187500.02, 0.00, 0.00, 0.00
210, -187500.02, -187500.02, -3180.27, -187500.02, -187500.02, -187500.02, -187500.02, -187500.02, -0.02, 0.01, 1.02
211, -187500.02, -187500.02, -3155.04, -187500.02, -187500.02, -187500.02, -187500.02, -187500.02, 0.00, 0.00, 0.00
212, -187500.02, -187500.02, -3275.13, -187500.02, -187500.02, -187500.02, -187500.02, -187500.02, 0.00, 0.00, 0.00
213, -187500.02, -187500.02, -3283.65, -187500.02, -187500.02, -187500.02, -187500.02, -187500.02, 0.00, 0.00, 0.00
214, -187500.02, -187500.02, -3198.45, -187500.02, -187500.02, -187500.02, -187500.02, -187500.02, 0.00, 0.00, 0.00
215, -187500.02, -187500.02, -3149.07, -187500.02, -187500.02, -187500.02, -187500.02, -187500.02, 0.00, 0.00, 0.00
216, -187500.02, -187500.02, -3256.58, -187500.02, -187500.02, -187500.02, -187500.02, -187500.02, 0.00, 0.00, 0.00
217, -187500.02, -187500.02, -3294.69, -187500.02, -187500.02, -187500.02, -187500.02, -187500.02, 0.00, 0.00, 0.00
218, -187500.02, -187500.02, -3198.24, -187500.02, -187500.02, -187500.02, -187500.02, -187500.02, 0.00, 0.00, 0.00
219, -187500.02, -187500.02, -3166.79, -187500.02, -187500.02, -187500.02, -187500.02, -187500.02, 0.00, 0.00, 0.00
220, -187500.02, -187500.02, -3251.26, -187500.02, -187500.02, -187500.02, -187500.02, -187500.02, -0.02, 0.01, 1.02
221, -187500.02, -187500.02, -3305.47, -187500.02, -187500.02, -187500.02, -187500.02, -187500.02, 0.00, 0.00, 0.00
222, -187500.02, -187500.02, -3213.98, -187500.02, -187500.02, -187500.02, -187500.02, -187500.02, 0.00, 0.00, 0.00
223, -187500.02, -187500.02, -3134.47, -187500.02, -187500.02, -187500.02, -187500.02, -187500.02, 0.00, 0.00, 0.00
224, -187500.02, -187500.02, -3199.63, -187500.02, -187500.02, -187500.02, -187500.02, -187500.02, 0.00, 0.00, 0.00
225, -187500.02, -187500.02, -3310.34, -187500.02, -187500.02, -187500.02, -187500.02, -187500.02, 0.00, 0.00, 0.00
226, -187500.02, -187500.02, -3310.00, -187500.02, -187500.02, -187500.02, -187500.02, -187500.02, 0.00, 0.00, 0.00
227, -187500.02, -187500.02, -3196.19, -187500.02, -187500.02, -187500.02, -187500.02, -187500.02, 0.00, 0.00, 0.00
228, -187500.02, -187500.02, -3186.78, -187500.02, -187500.02, -187500.02, -187500.02, -187500.02, 0.00, 0.00, 0.00
229, -187500.02, -187500.02, -3302.05, -187500.02, -187500.02, -187500.02, -187500.02, -187500.02, 0.00, 0.00, 0.00
230, -187500.02, -187500.02, -3236.22, -187500.02, -187500.02, -187500.02, -187500.02, -187500.02, -0.02, 0.01, 1.03
231, -187500.02, -187500.02, -3146.54, -187500.02, -187500.02, -187500.02, -187500.02, -187500.02, 0.00, 0.00, 0.00
232, -187500.02, -187500.02, -3131.39, -187500.02, -187500.02, -187500.02, -187500.02, -187500.02, 0.00, 0.00, 0.00
233, -187500.02, -187500.02, -3237.56, -187500.02, -187500.02, -187500.02, -187500.02, -187500.02, 0.00, 0.00, 0.00
234, -187500.02, -187500.02, -3247.22, -187500.02, -187500.02, -187500.02, -187500.02, -187500.02, 0.00, 0.00, 0.00
235, -187500.02, -187500.02, -3173.25, -187500.02, -187500.02, -187500.02, -187500.02, -187500.02, 0.00, 0.00, 0.00
236, -187500.02, -187500.02, -3144.58, -187500.02, -187500.02, -187500.02, -187500.02, -187500.02, 0.00, 0.00, 0.00
237, -187500.02, -187500.02, -3260.67, -187500.02, -187500.02, -187500.02, -187500.02, -187500.02, 0.00, 0.00, 0.00
238, -187500.02, -187500.02, -3263.51, -187500.02, -187500.02, -187500.02, -187500.02, -187500.02, 0.00, 0.00, 0.00
239, -187500.02, -187500.02, -3207.45, -187500.02, -187500.02, -187500.02, -187500.02, -187500.02, 0.00, 0.00, 0.00
240, -187500.02, -187500.02, -3177.50, -187500.02, -187500.02, -187500.02, -187500.02, -187500.02, -0.02, 0.02, 1.03
241, -187500.02, -187500.02, -3227.52, -187500.02, -187500.02, -187500.02, -187500.02, -187500.02, 0.00, 0.00, 0.00
242, -187500.02, -187500.02, -3271.60, -187500.02, -187500.02, -187500.02, -187500.02, -187500.02, 0.00, 0.00, 0.00
243, -187500.02, -187500.02, -3216.33, -187500.02, -187500.02, -187500.02, -187500.02, -187500.02, 0.00, 0.00, 0.00
244, -187500.02, -187500.02, -3132.75, -187500.02, -187500.02, -187500.02, -187500.02, -187500.02, 0.00, 0.00, 0.00
245, -187500.02, -187500.02, -3214.09, -187500.02, -187500.02, -187500.02, -187500.02, -187500.02, 0.00, 0.00, 0.00
246, -187500.02, -187500.02, -3296.97, -187500.02, -187500.02, -187500.02, -187500.02, -187500.02, 0.00, 0.00, 0.00
247, -187500.02, -187500.02, -3237.99, -187500.02, -187500.02, -187500.02, -187500.02, -187500.02, 0.00, 0.00, 0.00
248, -187500.02, -187500.02, -3150.99, -187500.02, -187500.02, -187500.02, -187500.02, -187500.02, 0.00, 0.00, 0.00
249, -187500.02, -187500.02, -3203.25, -187500.02, -187500.02, -187500.02, -187500.02, -187500.02, 0.00, 0.00, 0.00
250, -187500.02, -187500.02, -3317.94, -187500.02, -187500.02, -187500.02, -187500.02, -187500.02, 0.00, 0.00, 0.00
251, -187500.02, -187500.02, -3269.48, -187500.02, -187500.02, -187500.02, -187500.02, -187500.02, -0.02, 0.01, 1.04
252, -187500.02, -187500.02, -3180.34, -187500.02, -187500.02, -187500.02, -187500.02, -187500.02, 0.00, 0.00, 0.00
253, -187500.02, -187500.02, -3151.53, -187500.02, -187500.02, -187500.02, -187500.02, -187500.02, 0.00, 0.00, 0.00
254, -187500.02, -187500.02, -3279.47, -187500.02, -187500.02, -187500.02, -187500.02, -187500.02, 0.00, 0.00, 0.00
255, -187500.02, -187500.02, -3273.97, -187500.02, -187500.02, -187500.02, -187500.02, -187500.02, 0.00, 0.00, 0.00
0, -187500.02, -187500.02, -3191.40, -187500.02, -187500.02, -187500.02, -187500.02, -187500.02, 0.00, 0.00, 0.00
1, -187500.02, -187500.02, -3159.96, -187500.02, -187500.02, -187500.02, -187500.02, -187500.02, 0.00, 0.00, 0.00
2, -187500.02, -187500.02, -3249.41, -187500.02, -187500.02, -187500.02, -187500.02, -187500.02, 0.00, 0.00, 0.00
3, -187500.02, -187500.02, -3245.56, -187500.02, -187500.02, -187500.02, -187500.02, -187500.02, 0.00, 0.00, 0.00
4, -187500.02, -187500.02, -3176.32, -187500.02, -187500.02, -187500.02, -187500.02, -187500.02, 0.00, 0.00, 0.00
5, -187500.02, -187500.02, -3120.73, -187500.02, -187500.02, -187500.02, -187500.02, -187500.02, -0.02, 0.01, 1.04
6, -187500.02, -187500.02, -3234.19, -187500.02, -187500.02, -187500.02, -187500.02, -187500.02, 0.00, 0.00, 0.00
7, -187500.02, -187500.02, -3264.05, -187500.02, -187500.02, -187500.02, -187500.02, -187500.02, 0.00, 0.00, 0.00
8, -187500.02, -187500.02, -3195.81, -187500.02, -187500.02, -187500.02, -187500.02, -187500.02, 0.00, 0.00, 0.00
9, -187500.02, -187500.02, -3146.81, -187500.02, -187500.02, -187500.02, -187500.02, -187500.02, 0.00, 0.00, 0.00
10, -187500.02, -187500.02, -3238.75, -187500.02, -187500.02, -187500.02, -187500.02, -187500.02, 0.00, 0.00, 0.00
11, -187500.02, -187500.02, -3286.06, -187500.02, -187500.02, -187500.02, -187500.02, -187500.02, 0.00, 0.00, 0.00
12, -187500.02, -187500.02, -3217.62, -187500.02, -187500.02, -187500.02, -187500.02, -187500.02, 0.00, 0.00, 0.00
13, -187500.02, -187500.02, -3157.41, -187500.02, -187500.02, -187500.02, -187500.02, -187500.02, 0.00, 0.00, 0.00
14, -187500.02, -187500.02, -3221.65, -187500.02, -187500.02, -187500.02, -187500.02, -187500.02, 0.00, 0.00, 0.00
15, -187500.02, -187500.02, -3300.95, -187500.02, -187500.02, -187500.02, -187500.02, -187500.02, -0.02, 0.01, 1.03
16, -187500.02, -187500.02, -3252.38, -187500.02, -187500.02, -187500.02, -187500.02, -187500.02, 0.00, 0.00, 0.00
17, -187500.02, -187500.02, -3151.57, -187500.02, -187500.02, -187500.02, -187500.02, -187500.02, 0.00, 0.00, 0.00
18, -187500.02, -187500.02, -3193.24, -187500.02, -187500.02, -187500.02, -187500.02, -187500.02, 0.00, 0.00, 0.00
19, -187500.02, -187500.02, -3300.15, -187500.02, -187500.02, -187500.02, -187500.02, -187500.02, 0.00, 0.00, 0.00
20, -187500.02, -187500.02, -3248.54, -187500.02, -187500.02, -187500.02, -187500.02, -187500.02, 0.00, 0.00, 0.00
21, -187500.02, -187500.02, -3172.96, -187500.02, -187500.02, -187500.02, -187500.02, -187500.02, 0.00, 0.00, 0.00
22, -187500.02, -187500.02, -3167.60, -187500.02, -187500.02, -187500.02, -187500.02, -187500.02, 0.00, 0.00, 0.00
23, -187500.02, -187500.02, -3279.54, -187500.02, -187500.02, -187500.02, -187500.02, -187500.02, 0.00, 0.00, 0.00
24, -187500.02, -187500.02, -3255.40, -187500.02, -187500.02, -187500.02, -187500.02, -187500.02, 0.00, 0.00, 0.00
25, -187500.02, -187500.02, -3180.52, -187500.02, -187500.02, -187500.02, -187500.02, -187500.02, -0.02, 0.01, 1.02
26, -187500.02, -187500.02, -3157.72, -187500.02, -187500.02, -187500.02, -187500.02, -187500.02, 0.00, 0.00, 0.00
27, -187500.02, -187500.02, -3267.62, -187500.02, -187500.02, -187500.02, -187500.02, -187500.02, 0.00, 0.00, 0.00
28, -187500.02, -187500.02, -3269.95, -187500.02, -187500.02, -187500.02, -187500.02, -187500.02, 0.00, 0.00, 0.00
29, -187500.02, -187500.02, -3197.24, -187500.02, -187500.02, -187500.02, -187500.02, -187500.02, 0.00, 0.00, 0.00
30, -187500.02, -187500.02, -3152.09, -187500.02, -187500.02, -187500.02, -187500.02, -187500.02, 0.00, 0.00, 0.00
31, -187500.02, -187500.02, -3258.75, -187500.02, -187500.02, -187500.02, -187500.02, -187500.02, 0.00, 0.00, 0.00
32, -187500.02, -187500.02, -3298.16, -187500.02, -187500.02, -187500.02, -187500.02, -187500.02, 0.00, 0.00, 0.00
33, -187500.02, -187500.02, -3207.18, -187500.02, -187500.02, -187500.02, -187500.02, -187500.02, 0.00, 0.00, 0.00
34, -187500.02, -187500.02, -3130.32, -187500.02, -187500.02, -187500.02, -187500.02, -187500.02, 0.00, 0.00, 0.00
35, -187500.02, -187500.02, -3220.57, -187500.02, -187500.02, -187500.02, -187500.02, -187500.02, -0.02, 0.01, 1.02
36, -187500.02, -187500.02, -3279.47, -187500.02, -187500.02, -187500.02, -187500.02, -187500.02, 0.00, 0.00, 0.00
37, -187500.02, -187500.02, -3213.29, -187500.02, -187500.02, -187500.02, -187500.02, -187500.02, 0.00, 0.00, 0.00
38, -187500.02, -187500.02, -3149.67, -187500.02, -187500.02, -187500.02, -187500.02, -187500.02, 0.00, 0.00, 0.00
39, -187500.02, -187500.02, -3199.27, -187500.02, -187500.02, -187500.02, -187500.02, -187500.02, 0.00, 0.00, 0.00
40, -187500.02, -187500.02, -3282.64, -187500.02, -187500.02, -187500.02, -187500.02, -187500.02, 0.00, 0.00, 0.00
41, -187500.02, -187500.02, -3229.04, -187500.02, -187500.02, -187500.02, -187500.02, -187500.02, 0.00, 0.00, 0.00
42, -187500.02, -187500.02, -3157.21, -187500.02, -187500.02, -187500.02, -187500.02, -187500.02, 0.00, 0.00, 0.00
43, -187500.02, -187500.02, -3186.82, -187500.02, -187500.02, -187500.02, -187500.02, -187500.02, 0.00, 0.00, 0.00
44, -187500.02, -187500.02, -3307.21, -187500.02, -187500.02, -187500.02, -187500.02, -187500.02, 0.00, 0.00, 0.00
45, -187500.02, -187500.02, -3329.25, -187500.02, -187500.02, -187500.02, -187500.02, -187500.02, -0.02, 0.01, 1.02
46, -187500.02, -187500.02, -3238.37, -187500.02, -187500.02, -187500.02, -187500.02, -187500.02, 0.00, 0.00, 0.00
47, -187500.02, -187500.02, -3095.98, -187500.02, -187500.02, -187500.02, -187500.02, -187500.02, 0.00, 0.00, 0.00
48, -187500.02, -187500.02, -3209.26, -187500.02, -187500.02, -187500.02, -187500.02, -187500.02, 0.00, 0.00, 0.00
49, -187500.02, -187500.02, -3228.62, -187500.02, -187500.02, -187500.02, -187500.02, -187500.02, 0.00, 0.00, 0.00
50, -187500.02, -187500.02, -3158.48, -187500.02, -187500.02, -187500.02, -187500.02, -187500.02, 0.00, 0.00, 0.00
51, -187500.02, -187500.02, -3140.64, -187500.02, -187500.02, -187500.02, -187500.02, -187500.02, 0.00, 0.00, 0.00
52, -187500.02, -187500.02, -3251.73, -187500.02, -187500.02, -187500.02, -187500.02, -187500.02, 0.00, 0.00, 0.00
53, -187500.02, -187500.02, -3250.23, -187500.02, -187500.02, -187500.02, -187500.02, -187500.02, 0.00, 0.00, 0.00
54, -187500.02, -187500.02, -3180.05, -187500.02, -187500.02, -187500.02, -187500.02, -187500.02, 0.00, 0.00, 0.00
55, -187500.02, -187500.02, -3135.79, -187500.02, -187500.02, -187500.02, -187500.02, -187500.02, 0.00, 0.00, 0.00
56, -187500.02, -187500.02, -3237.40, -187500.02, -187500.02, -187500.02, -187500.02, -187500.02, -0.02, 0.01, 1.02
57, -187500.02, -187500.02, -3275.92, -187500.02, -187500.02, -187500.02, -187500.02, -187500.02, 0.00, 0.00, 0.00
58, -187500.02, -187500.02, -3206.38, -187500.02, -187500.02, -187500.02, -187500.02, -187500.02, 0.00, 0.00, 0.00
59, -187500.02, -187500.02, -3147.59, -187500.02, -187500.02, -187500.02, -187500.02, -187500.02, 0.00, 0.00, 0.00
60, -187500.02, -187500.02, -3221.56, -187500.02, -187500.02, -187500.02, -187500.02, -187500.02, 0.00, 0.00, 0.00
61, -187500.02, -187500.02, -3280.43, -187500.02, -187500.02, -187500.02, -187500.02, -187500.02, 0.00, 0.00, 0.00
62, -187500.02, -187500.02, -3218.03, -187500.02, -187500.02, -187500.02, -187500.02, -187500.02, 0.00, 0.00, 0.00
63, -187500.02, -187500.02, -3150.34, -187500.02, -187500.02, -187500.02, -187500.02, -187500.02, 0.00, 0.00, 0.00
64, -187500.02, -187500.02, -3202.92, -187500.02, -187500.02, -187500.02, -187500.02, -187500.02, 0.00, 0.00, 0.00
65, -187500.02, -187500.02, -3288.37, -187500.02, -187500.02, -187500.02, -187500.02, -187500.02, 0.00, 0.00, 0.00
66, -187500.02, -187500.02, -3243.22, -187500.02, -187500.02, -187500.02, -187500.02, -187500.02, -0.02, 0.02, 1.02
67, -187500.02, -187500.02, -3161.03, -187500.02, -187500.02, -187500.02, -187500.02, -187500.02, 0.00, 0.00, 0.00
68, -187500.02, -187500.02, -3172.20, -187500.02, -187500.02, -187500.02, -187500.02, -187500.02, 0.00, 0.00, 0.00
69, -187500.02, -187500.02, -3282.76, -187500.02, -187500.02, -187500.02, -187500.02, -187500.02, 0.00, 0.00, 0.00
70, -187500.02, -187500.02, -3257.21, -187500.02, -187500.02, -187500.02, -187500.02, -187500.02, 0.00, 0.00, 0.00
71, -187500.02, -187500.02, -3182.93, -187500.02, -187500.02, -187500.02, -187500.02, -187500.02, 0.00, 0.00, 0.00
72, -187500.02, -187500.02, -3161.41, -187500.02, -187500.02, -187500.02, -187500.02, -187500.02, 0.00, 0.00, 0.00
73, -187500.02, -187500.02, -3270.33, -187500.02, -187500.02, -187500.02, -187500.02, -187500.02, 0.00, 0.00, 0.00
74, -187500.02, -187500.02, -3270.78, -187500.02, -187500.02, -187500.02, -187500.02, -187500.02, 0.00, 0.00, 0.00
75, -187500.02, -187500.02, -3195.18, -187500.02, -187500.02, -187500.02, -187500.02, -187500.02, 0.00, 0.00, 0.00
76, -187500.02, -187500.02, -3151.42, -187500.02, -187500.02, -187500.02, -187500.02, -187500.02, -0.02, 0.02, 1.02
77, -187500.02, -187500.02, -3255.58, -187500.02, -187500.02, -187500.02, -187500.02, -187500.02, 0.00, 0.00, 0.00
78, -187500.02, -187500.02, -3275.47, -187500.02, -187500.02, -187500.02, -187500.02, -187500.02, 0.00, 0.00, 0.00
79, -187500.02, -187500.02, -3210.78, -187500.02, -187500.02, -187500.02, -187500.02, -187500.02, 0.00, 0.00, 0.00
80, -187500.02, -187500.02, -3151.91, -187500.02, -187500.02, -187500.02, -187500.02, -187500.02, 0.00, 0.00, 0.00
81, -187500.02, -187500.02, -3228.87, -187500.02, -187500.02, -187500.02, -187500.02, -187500.02, 0.00, 0.00, 0.00
82, -187500.02, -187500.02, -3282.11, -187500.02, -187500.02, -187500.02, -187500.02, -187500.02, 0.00, 0.00, 0.00
83, -187500.02, -187500.02, -3217.04, -187500.02, -187500.02, -187500.02, -187500.02, -187500.02, 0.00, 0.00, 0.00
84, -187500.02, -187500.02, -3151.17, -187500.02, -187500.02, -187500.02, -187500.02, -187500.02, 0.00, 0.00, 0.00
85, -187500.02, -187500.02, -3207.70, -187500.02, -187500.02, -187500.02, -187500.02, -187500.02, 0.00, 0.00, 0.00
86, -187500.02, -187500.02, -3287.45, -187500.02, -187500.02, -187500.02, -187500.02, -187500.02, -0.02, 0.02, 1.02
87, -187500.02, -187500.02, -3220.93, -187500.02, -187500.02, -187500.02, -187500.02, -187500.02, 0.00, 0.00, 0.00
88, -187500.02, -187500.02, -3155.08, -187500.02, -187500.02, -187500.02, -187500.02, -187500.02, 0.00, 0.00, 0.00
89, -187500.02, -187500.02, -3198.58, -187500.02, -187500.02, -187500.02, -187500.02, -187500.02, 0.00, 0.00, 0.00
90, -187500.02, -187500.02, -3288.77, -187500.02, -187500.02, -187500.02, -187500.02, -187500.02, 0.00, 0.00, 0.00
91, -187500.02, -187500.02, -3242.17, -187500.02, -187500.02, -187500.02, -187500.02, -187500.02, 0.00, 0.00, 0.00
92, -187500.02, -187500.02, -3165.97, -187500.02, -187500.02, -187500.02, -187500.02, -187500.02, 0.00, 0.00, 0.00
93, -187500.02, -187500.02, -3178.24, -187500.02, -187500.02, -187500.02, -187500.02, -187500.02, 0.00, 0.00, 0.00
94, -187500.02, -187500.02, -3288.10, -187500.02, -187500.02, -187500.02, -187500.02, -187500.02, 0.00, 0.00, 0.00
95, -187500.02, -187500.02, -3256.09, -187500.02, -187500.02, -187500.02, -187500.02, -187500.02, 0.00, 0.00, 0.00
96, -187500.02, -187500.02, -3158.55, -187500.02, -187500.02, -187500.02, -187500.02, -187500.02, -0.02, 0.02, 1.02
97, -187500.02, -187500.02, -3152.60, -187500.02, -187500.02, -187500.02, -187500.02, -187500.02, 0.00, 0.00, 0.00
98, -187500.02, -187500.02, -3316.98, -187500.02, -187500.02, -187500.02, -187500.02, -187500.02, 0.00, 0.00, 0.00
99, -187500.02, -187500.02, -3269.21, -187500.02, -187500.02, -187500.02, -187500.02, -187500.02, 0.00, 0.00, 0.00
100, -187500.02, -187500.02, -3126.27, -187500.02, -187500.02, -187500.02, -187500.02, -187500.02, 0.00, 0.00, 0.00
101, -187500.02, -187500.02, -3119.86, -187500.02, -187500.02, -187500.02, -187500.02, -187500.02, 0.00, 0.00, 0.00
102, -187500.02, -187500.02, -3227.37, -187500.02, -187500.02, -187500.02, -187500.02, -187500.02, 0.00, 0.00, 0.00
103, -187500.02, -187500.02, -3261.72, -187500.02, -187500.02, -187500.02, -187500.02, -187500.02, 0.00, 0.00, 0.00
104, -187500.02, -187500.02, -3188.19, -187500.02, -187500.02, -187500.02, -187500.02, -187500.02, 0.00, 0.00, 0.00
105, -187500.02, -187500.02, -3131.12, -187500.02, -187500.02, -187500.02, -187500.02, -187500.02, 0.00, 0.00, 0.00
106, -187500.02, -187500.02, -3213.17, -187500.02, -187500.02, -187500.02, -187500.02, -187500.02, -0.02, 0.01, 1.02
107, -187500.02, -187500.02, -3272.43, -187500.02, -187500.02, -187500.02, -187500.02, -187500.02, 0.00, 0.00, 0.00
108, -187500.02, -187500.02, -3207.16, -187500.02, -187500.02, -187500.02, -187500.02, -187500.02, 0.00, 0.00, 0.00
109, -187500.02, -187500.02, -3140.20, -187500.02, -187500.02, -187500.02, -187500.02, -187500.02, 0.00, 0.00, 0.00
110, -187500.02, -187500.02, -3192.41, -187500.02, -187500.02, -187500.02, -187500.02, -187500.02, 0.00, 0.00, 0.00
111, -187500.02, -187500.02, -3273.10, -187500.02, -187500.02, -187500.02, -187500.02, -187500.02, 0.00, 0.00, 0.00
112, -187500.02, -187500.02, -3223.28, -187500.02, -187500.02, -187500.02, -187500.02, -187500.02, 0.00, 0.00, 0.00
113, -187500.02, -187500.02, -3154.03, -187500.02, -187500.02, -187500.02, -187500.02, -187500.02, 0.00, 0.00, 0.00
114, -187500.02, -187500.02, -3181.12, -187500.02, -187500.02, -187500.02, -187500.02, -187500.02, 0.00, 0.00, 0.00
115, -187500.02, -187500.02, -3284.19, -187500.02, -187500.02, -187500.02, -187500.02, -187500.02, 0.00, 0.00, 0.00
116, -187500.02, -187500.02, -3241.58, -187500.02, -187500.02, -187500.02, -187500.02, -187500.02, -0.03, 0.02, 1.02
117, -187500.02, -187500.02, -3157.41, -187500.02, -187500.02, -187500.02, -187500.02, -187500.02, 0.00, 0.00, 0.00
118, -187500.02, -187500.02, -3139.28, -187500.02, -187500.02, -187500.02, -187500.02, -187500.02, 0.00, 0.00, 0.00
119, -187500.02, -187500.02, -3256.40, -187500.02, -187500.02, -187500.02, -187500.02, -187500.02, 0.00, 0.00, 0.00
120, -187500.02, -187500.02, -3242.19, -187500.02, -187500.02, -187500.02, -187500.02, -187500.02, 0.00, 0.00, 0.00
121, -187500.02, -187500.02, -3160.58, -187500.02, -187500.02, -187500.02, -187500.02, -187500.02, 0.00, 0.00, 0.00
122, -187500.02, -187500.02, -3138.59, -187500.02, -187500.02, -187500.02, -187500.02, -187500.02, 0.00, 0.00, 0.00
123, -187500.02, -187500.02, -3251.78, -187500.02, -187500.02, -187500.02, -187500.02, -187500.02, 0.00, 0.00, 0.00
124, -187500.02, -187500.02, -3272.65, -187500.02, -187500.02, -187500.02, -187500.02, -187500.02, 0.00, 0.00, 0.00
125, -187500.02, -187500.02, -3190.91, -187500.02, -187500.02, -187500.02, -187500.02, -187500.02, 0.00, 0.00, 0.00
126, -187500.02, -187500.02, -3119.74, -187500.02, -187500.02, -187500.02, -187500.02, -187500.02, 0.00, 0.00, 0.00
127, -187500.02, -187500.02, -3219.30, -187500.02, -187500.02, -187500.02, -187500.02, -187500.02, -0.02, 0.02, 1.02
128, -187500.02, -187500.02, -3272.32, -187500.02, -187500.02, -187500.02, -187500.02, -187500.02, 0.00, 0.00, 0.00
129, -187500.02, -187500.02, -3193.08, -187500.02, -187500.02, -187500.02, -187500.02, -187500.02, 0.00, 0.00, 0.00
130, -187500.02, -187500.02, -3132.02, -187500.02, -187500.02, -187500.02, -187500.02, -187500.02, 0.00, 0.00, 0.00
131, -187500.02, -187500.02, -3208.24, -187500.02, -187500.02, -187500.02, -187500.02, -187500.02, 0.00, 0.00, 0.00
132, -187500.02, -187500.02, -3273.79, -187500.02, -187500.02, -187500.02, -187500.02, -187500.02, 0.00, 0.00, 0.00
133, -187500.02, -187500.02, -3206.60, -187500.02, -187500.02, -187500.02, -187500.02, -187500.02, 0.00, 0.00, 0.00
134, -187500.02, -187500.02, -3136.93, -187500.02, -187500.02, -187500.02, -187500.02, -187500.02, 0.00, 0.00, 0.00
135, -187500.02, -187500.02, -3183.40, -187500.02, -187500.02, -187500.02, -187500.02, -187500.02, 0.00, 0.00, 0.00
136, -187500.02, -187500.02, -3275.47, -187500.02, -187500.02, -187500.02, -187500.02, -187500.02, 0.00, 0.00, 0.00
137, -187500.02, -187500.02, -3227.75, -187500.02, -187500.02, -187500.02, -187500.02, -187500.02, -0.02, 0.01, 1.02
138, -187500.02, -187500.02, -3152.07, -187500.02, -187500.02, -187500.02, -187500.02, -187500.02, 0.00, 0.00, 0.00
139, -187500.02, -187500.02, -3160.11, -187500.02, -187500.02, -187500.02, -187500.02, -187500.02, 0.00, 0.00, 0.00
140, -187500.02, -187500.02, -3276.18, -187500.02, -187500.02, -187500.02, -187500.02, -187500.02, 0.00, 0.00, 0.00
141, -187500.02, -187500.02, -3254.35, -187500.02, -187500.02, -187500.02, -187500.02, -187500.02, 0.00, 0.00, 0.00
142, -187500.02, -187500.02, -3178.80, -187500.02, -187500.02, -187500.02, -187500.02, -187500.02, 0.00, 0.00, 0.00
143, -187500.02, -187500.02, -3156.69, -187500.02, -187500.02, -187500.02, -187500.02, -187500.02, 0.00, 0.00, 0.00
144, -187500.02, -187500.02, -3262.17, -187500.02, -187500.02, -187500.02, -187500.02, -187500.02, 0.00, 0.00, 0.00
145, -187500.02, -187500.02, -3251.42, -187500.02, -187500.02, -187500.02, -187500.02, -187500.02, 0.00, 0.00, 0.00
146, -187500.02, -187500.02, -3168.18, -187500.02, -187500.02, -187500.02, -187500.02, -187500.02, 0.00, 0.00, 0.00
147, -187500.02, -187500.02, -3139.73, -187500.02, -187500.02, -187500.02, -187500.02, -187500.02, -0.02, 0.01, 1.02
148, -187500.02, -187500.02, -3255.33, -187500.02, -187500.02, -187500.02, -187500.02, -187500.02, 0.00, 0.00, 0.00
149, -187500.02, -187500.02, -3277.28, -187500.02, -187500.02, -187500.02, -187500.02, -187500.02, 0.00, 0.00, 0.00
150, -187500.02, -187500.02, -3198.18, -187500.02, -187500.02, -187500.02, -187500.02, -187500.02, 0.00, 0.00, 0.00
151, -187500.02, -187500.02, -3126.49, -187500.02, -187500.02, -187500.02, -187500.02, -187500.02, 0.00, 0.00, 0.00
152, -187500.02, -187500.02, -3217.76, -187500.02, -187500.02, -187500.02, -187500.02, -187500.02, 0.00, 0.00, 0.00
153, -187500.02, -187500.02, -3272.34, -187500.02, -187500.02, -187500.02, -187500.02, -187500.02, 0.00, 0.00, 0.00
154, -187500.02, -187500.02, -3207.94, -187500.02, -187500.02, -187500.02, -187500.02, -187500.02, 0.00, 0.00, 0.00
155, -187500.02, -187500.02, -3144.24, -187500.02, -187500.02, -187500.02, -187500.02, -187500.02, 0.00, 0.00, 0.00
156, -187500.02, -187500.02, -3218.96, -187500.02, -187500.02, -187500.02, -187500.02, -187500.02, 0.00, 0.00, 0.00
157, -187500.02, -187500.02, -3292.97, -187500.02, -187500.02, -187500.02, -187500.02, -187500.02, -0.02, 0.01, 1.02
158, -187500.02, -187500.02, -3218.16, -187500.02, -187500.02, -187500.02, -187500.02, -187500.02, 0.00, 0.00, 0.00
159, -187500.02, -187500.02, -3149.09, -187500.02, -187500.02, -187500.02, -187500.02, -187500.02, 0.00, 0.00, 0.00
160, -187500.02, -187500.02, -3186.22, -187500.02, -187500.02, -187500.02, -187500.02, -187500.02, 0.00, 0.00, 0.00
161, -187500.02, -187500.02, -3274.64, -187500.02, -187500.02, -187500.02, -187500.02, -187500.02, 0.00, 0.00, 0.00
162, -187500.02, -187500.02, -3230.52, -187500.02, -187500.02, -187500.02, -187500.02, -187500.02, 0.00, 0.00, 0.00
163, -187500.02, -187500.02, -3162.41, -187500.02, -187500.02, -187500.02, -187500.02, -187500.02, 0.00, 0.00, 0.00
164, -187500.02, -187500.02, -3173.86, -187500.02, -187500.02, -187500.02, -187500.02, -187500.02, 0.00, 0.00, 0.00
165, -187500.02, -187500.02, -3277.48, -187500.02, -187500.02, -187500.02, -187500.02, -187500.02, 0.00, 0.00, 0.00
166, -187500.02, -187500.02, -3247.42, -187500.02, -187500.02, -187500.02, -187500.02, -187500.02, 0.00, 0.00, 0.00
167, -187500.02, -187500.02, -3168.63, -187500.02, -187500.02, -187500.02, -187500.02, -187500.02, -0.02, 0.01, 1.02
168, -187500.02, -187500.02, -3144.26, -187500.02, -187500.02, -187500.02, -187500.02, -187500.02, 0.00, 0.00, 0.00
169, -187500.02, -187500.02, -3259.02, -187500.02, -187500.02, -187500.02, -187500.02, -187500.02, 0.00, 0.00, 0.00
170, -187500.02, -187500.02, -3264.47, -187500.02, -187500.02, -187500.02, -187500.02, -187500.02, 0.00, 0.00, 0.00
171, -187500.02, -187500.02, -3189.15, -187500.02, -187500.02, -187500.02, -187500.02, -187500.02, 0.00, 0.00, 0.00
172, -187500.02, -187500.02, -3150.32, -187500.02, -187500.02, -187500.02, -187500.02, -187500.02, 0.00, 0.00, 0.00
173, -187500.02, -187500.02, -3245.56, -187500.02, -187500.02, -187500.02, -187500.02, -187500.02, 0.00, 0.00, 0.00
174, -187500.02, -187500.02, -3272.85, -187500.02, -187500.02, -187500.02, -187500.02, -187500.02, 0.00, 0.00, 0.00
175, -187500.02, -187500.02, -3195.76, -187500.02, -187500.02, -187500.02, -187500.02, -187500.02, 0.00, 0.00, 0.00
176, -187500.02, -187500.02, -3140.44, -187500.02, -187500.02, -187500.02, -187500.02, -187500.02, 0.00, 0.00, 0.00
177, -187500.02, -187500.02, -3220.31, -187500.02, -187500.02, -187500.02, -187500.02, -187500.02, -0.01, 0.01, 1.02
178, -187500.02, -187500.02, -3277.97, -187500.02, -187500.02, -187500.02, -187500.02, -187500.02, 0.00, 0.00, 0.00
179, -187500.02, -187500.02, -3214.38, -187500.02, -187500.02, -187500.02, -187500.02, -187500.02, 0.00, 0.00, 0.00
180, -187500.02, -187500.02, -3151.69, -187500.02, -187500.02, -187500.02, -187500.02, -187500.02, 0.00, 0.00, 0.00
181, -187500.02, -187500.02, -3202.63, -187500.02, -187500.02, -187500.02, -187500.02, -187500.02, 0.00, 0.00, 0.00
182, -187500.02, -187500.02, -3278.98, -187500.02, -187500.02, -187500.02, -187500.02, -187500.02, 0.00, 0.00, 0.00
183, -187500.02, -187500.02, -3228.53, -187500.02, -187500.02, -187500.02, -187500.02, -187500.02, 0.00, 0.00, 0.00
184, -187500.02, -187500.02, -3151.89, -187500.02, -187500.02, -187500.02, -187500.02, -187500.02, 0.00, 0.00, 0.00
185, -187500.02, -187500.02, -3179.78, -187500.02, -187500.02, -187500.02, -187500.02, -187500.02, 0.00, 0.00, 0.00
186, -187500.02, -187500.02, -3286.13, -187500.02, -187500.02, -187500.02, -187500.02, -187500.02, 0.00, 0.00, 0.00
187, -187500.02, -187500.02, -3240.94, -187500.02, -187500.02, -187500.02, -187500.02, -187500.02, 0.00, 0.00, 0.00
188, -187500.02, -187500.02, -3158.82, -187500.02, -187500.02, -187500.02, -187500.02, -187500.02, -0.02, 0.01, 1.03
189, -187500.02, -187500.02, -3156.60, -187500.02, -187500.02, -187500.02, -187500.02, -187500.02, 0.00, 0.00, 0.00
190, -187500.02, -187500.02, -3266.75, -187500.02, -187500.02, -187500.02, -187500.02, -187500.02, 0.00, 0.00, 0.00
191, -187500.02, -187500.02, -3252.31, -187500.02, -187500.02, -187500.02, -187500.02, -187500.02, 0.00, 0.00, 0.00
192, -187500.02, -187500.02, -3176.45, -187500.02, -187500.02, -187500.02, -187500.02, -187500.02, 0.00, 0.00, 0.00
193, -187500.02, -187500.02, -3148.33, -187500.02, -187500.02, -187500.02, -187500.02, -187500.02, 0.00, 0.00, 0.00
194, -187500.02, -187500.02, -3256.58, -187500.02, -187500.02, -187500.02, -187500.02, -187500.02, 0.00, 0.00, 0.00
195, -187500.02, -187500.02, -3264.87, -187500.02, -187500.02, -187500.02, -187500.02, -187500.02, 0.00, 0.00, 0.00
196, -187500.02, -187500.02, -3187.31, -187500.02, -187500.02, -187500.02, -187500.02, -187500.02, 0.00, 0.00, 0.00
197, -187500.02, -187500.02, -3141.14, -187500.02, -187500.02, -187500.02, -187500.02, -187500.02, 0.00, 0.00, 0.00
198, -187500.02, -187500.02, -3234.61, -187500.02, -187500.02, -187500.02, -187500.02, -187500.02, -0.02, 0.01, 1.02
199, -187500.02, -187500.02, -3270.80, -187500.02, -187500.02, -187500.02, -187500.02, -187500.02, 0.00, 0.00, 0.00
200, -187500.02, -187500.02, -3198.45, -187500.02, -187500.02, -187500.02, -187500.02, -187500.02, 0.00, 0.00, 0.00
201, -187500.02, -187500.02, -3139.62, -187500.02, -187500.02, -187500.02, -187500.02, -187500.02, 0.00, 0.00, 0.00
202, -187500.02, -187500.02, -3220.86, -187500.02, -187500.02, -187500.02, -187500.02, -187500.02, 0.00, 0.00, 0.00
203, -187500.02, -187500.02, -3288.10, -187500.02, -187500.02, -187500.02, -187500.02, -187500.02, 0.00, 0.00, 0.00
204, -187500.02, -187500.02, -3220.75, -187500.02, -187500.02, -187500.02, -187500.02, -187500.02, 0.00, 0.00, 0.00
205, -187500.02, -187500.02, -3139.91, -187500.02, -187500.02, -187500.02, -187500.02, -187500.02, 0.00, 0.00, 0.00
206, -187500.02, -187500.02, -3179.45, -187500.02, -187500.02, -187500.02, -187500.02, -187500.02, 0.00, 0.00, 0.00
207, -187500.02, -187500.02, -3274.53, -187500.02, -187500.02, -187500.02, -187500.02, -187500.02, 0.00, 0.00, 0.00
208, -187500.02, -187500.02, -3229.25, -187500.02, -187500.02, -187500.02, -187500.02, -187500.02, -0.02, 0.01, 1.03
209, -187500.02, -187500.02, -3151.89, -187500.02, -187500.02, -187500.02, -187500.02, -187500.02, 0.00, 0.00, 0.00
210, -187500.02, -187500.02, -3163.98, -187500.02, -187500.02, -187500.02, -187500.02, -187500.02, 0.00, 0.00, 0.00
211, -187500.02, -187500.02, -3266.69, -187500.02, -187500.02, -187500.02, -187500.02, -187500.02, 0.00, 0.00, 0.00
212, -187500.02, -187500.02, -3230.59, -187500.02, -187500.02, -187500.02, -187500.02, -187500.02, 0.00, 0.00, 0.00
213, -187500.02, -187500.02, -3150.46, -187500.02, -187500.02, -187500.02, -187500.02, -187500.02, 0.00, 0.00, 0.00
214, -187500.02, -187500.02, -3142.90, -187500.02, -187500.02, -187500.02, -187500.02, -187500.02, 0.00, 0.00, 0.00
215, -187500.02, -187500.02, -3259.67, -187500.02, -187500.02, -187500.02, -187500.02, -187500.02, 0.00, 0.00, 0.00
216, -187500.02, -187500.02, -3251.62, -187500.02, -187500.02, -187500.02, -187500.02, -187500.02, 0.00, 0.00, 0.00
217, -187500.02, -187500.02, -3173.61, -187500.02, -187500.02, -187500.02, -187500.02, -187500.02, 0.00, 0.00, 0.00
218, -187500.02, -187500.02, -3136.93, -187500.02, -187500.02, -187500.02, -187500.02, -187500.02, -0.03, 0.01, 1.03
219, -187500.02, -187500.02, -3242.50, -187500.02, -187500.02, -187500.02, -187500.02, -187500.02, 0.00, 0.00, 0.00
220, -187500.02, -187500.02, -3257.03, -187500.02, -187500.02, -187500.02, -187500.02, -187500.02, 0.00, 0.00, 0.00
221, -187500.02, -187500.02, -3185.15, -187500.02, -187500.02, -187500.02, -187500.02, -187500.02, 0.00, 0.00, 0.00
222, -187500.02, -187500.02, -3133.25, -187500.02, -187500.02, -187500.02, -187500.02, -187500.02, 0.00, 0.00, 0.00
223, -187500.02, -187500.02, -3221.60, -187500.02, -187500.02, -187500.02, -187500.02, -187500.02, 0.00, 0.00, 0.00
224, -187500.02, -187500.02, -3268.65, -187500.02, -187500.02, -187500.02, -187500.02, -187500.02, 0.00, 0.00, 0.00
225, -187500.02, -187500.02, -3201.04, -187500.02, -187500.02, -187500.02, -187500.02, -187500.02, 0.00, 0.00, 0.00
226, -187500.02, -187500.02, -3140.11, -187500.02, -187500.02, -187500.02, -187500.02, -187500.02, 0.00, 0.00, 0.00
227, -187500.02, -187500.02, -3200.52, -187500.02, -187500.02, -187500.02, -187500.02, -187500.02, 0.00, 0.00, 0.00
228, -187500.02, -187500.02, -3270.06, -187500.02, -187500.02, -187500.02, -187500.02, -187500.02, -0.03, 0.01, 1.03
229, -187500.02, -187500.02, -3213.69, -187500.02, -187500.02, -187500.02, -187500.02, -187500.02, 0.00, 0.00, 0.00
230, -187500.02, -187500.02, -3142.90, -187500.02, -187500.02, -187500.02, -187500.02, -187500.02, 0.00, 0.00, 0.00
231, -187500.02, -187500.02, -3180.03, -187500.02, -187500.02, -187500.02, -187500.02, -187500.02, 0.00, 0.00, 0.00
232, -187500.02, -187500.02, -3280.59, -187500.02, -187500.02, -187500.02, -187500.02, -187500.02, 0.00, 0.00, 0.00
233, -187500.02, -187500.02, -3232.96, -187500.02, -187500.02, -187500.02, -187500.02, -187500.02, 0.00, 0.00, 0.00
234, -187500.02, -187500.02, -3154.28, -187500.02, -187500.02, -187500.02, -187500.02, -187500.02, 0.00, 0.00, 0.00
235, -187500.02, -187500.02, -3169.30, -187500.02, -187500.02, -187500.02, -187500.02, -187500.02, 0.00, 0.00, 0.00
236, -187500.02, -187500.02, -3275.36, -187500.02, -187500.02, -187500.02, -187500.02, -187500.02, 0.00, 0.00, 0.00
237, -187500.02, -187500.02, -3254.53, -187500.02, -187500.02, -187500.02, -187500.02, -187500.02, 0.00, 0.00, 0.00
238, -187500.02, -187500.02, -3179.09, -187500.02, -187500.02, -187500.02, -187500.02, -187500.02, -0.02, 0.01, 1.02
239, -187500.02, -187500.02, -3154.41, -187500.02, -187500.02, -187500.02, -187500.02, -187500.02, 0.00, 0.00, 0.00
240, -187500.02, -187500.02, -3263.06, -187500.02, -187500.02, -187500.02, -187500.02, -187500.02, 0.00, 0.00, 0.00
241, -187500.02, -187500.02, -3262.04, -187500.02, -187500.02, -187500.02, -187500.02, -187500.02, 0.00, 0.00, 0.00
242, -187500.02, -187500.02, -3174.66, -187500.02, -187500.02, -187500.02, -187500.02, -187500.02, 0.00, 0.00, 0.00
243, -187500.02, -187500.02, -3141.49, -187500.02, -187500.02, -187500.02, -187500.02, -187500.02, 0.00, 0.00, 0.00
244, -187500.02, -187500.02, -3244.18, -187500.02, -187500.02, -187500.02, -187500.02, -187500.02, 0.00, 0.00, 0.00
245, -187500.02, -187500.02, -3262.53, -187500.02, -187500.02, -187500.02, -187500.02, -187500.02, 0.00, 0.00, 0.00
246, -187500.02, -187500.02, -3195.43, -187500.02, -187500.02, -187500.02, -187500.02, -187500.02, 0.00, 0.00, 0.00
247, -187500.02, -187500.02, -3138.79, -187500.02, -187500.02, -187500.02, -187500.02, -187500.02, 0.00, 0.00, 0.00
248, -187500.02, -187500.02, -3227.73, -187500.02, -187500.02, -187500.02, -187500.02, -187500.02, 0.00, 0.00, 0.00
249, -187500.02, -187500.02, -3282.51, -187500.02, -187500.02, -187500.02, -187500.02, -187500.02, -0.02, 0.01, 1.03
250, -187500.02, -187500.02, -3205.71, -187500.02, -187500.02, -187500.02, -187500.02, -187500.02, 0.00, 0.00, 0.00
251, -187500.02, -187500.02, -3139.59, -187500.02, -187500.02, -187500.02, -187500.02, -187500.02, 0.00, 0.00, 0.00
252, -187500.02, -187500.02, -3195.76, -187500.02, -187500.02, -187500.02, -187500.02, -187500.02, 0.00, 0.00, 0.00
253, -187500.02, -187500.02, -3271.49, -187500.02, -187500.02, -187500.02, -187500.02, -187500.02, 0.00, 0.00, 0.00
254, -187500.02, -187500.02, -3219.81, -187500.02, -187500.02, -187500.02, -187500.02, -187500.02, 0.00, 0.00, 0.00
255, -187500.02, -187500.02, -3141.96, -187500.02, -187500.02, -187500.02, -187500.02, -187500.02, 0.00, 0.00, 0.00
0, -187500.02, -187500.02, -3172.58, -187500.02, -187500.02, -187500.02, -187500.02, -187500.02, 0.00, 0.00, 0.00
1, -187500.02, -187500.02, -3282.40, -187500.02, -187500.02, -187500.02, -187500.02, -187500.02, 0.00, 0.00, 0.00
2, -187500.02, -187500.02, -3248.07, -187500.02, -187500.02, -187500.02, -187500.02, -187500.02, 0.00, 0.00, 0.00
3, -187500.02, -187500.02, -3167.09, -187500.02, -187500.02, -187500.02, -187500.02, -187500.02, -0.01, 0.01, 1.03
4, -187500.02, -187500.02, -3179.33, -187500.02, -187500.02, -187500.02, -187500.02, -187500.02, 0.00, 0.00, 0.00
5, -187500.02, -187500.02, -3297.02, -187500.02, -187500.02, -187500.02, -187500.02, -187500.02, 0.00, 0.00, 0.00
6, -187500.02, -187500.02, -3262.15, -187500.02, -187500.02, -187500.02, -187500.02, -187500.02, 0.00, 0.00, 0.00
7, -187500.02, -187500.02, -3162.19, -187500.02, -187500.02, -187500.02, -187500.02, -187500.02, 0.00, 0.00, 0.00
8, -187500.02, -187500.02, -3134.34, -187500.02, -187500.02, -187500.02, -187500.02, -187500.02, 0.00, 0.00, 0.00
9, -187500.02, -187500.02, -3256.76, -187500.02, -187500.02, -187500.02, -187500.02, -187500.02, 0.00, 0.00, 0.00
10, -187500.02, -187500.02, -3267.02, -187500.02, -187500.02, -187500.02, -187500.02, -187500.02, 0.00, 0.00, 0.00
11, -187500.02, -187500.02, -3188.72, -187500.02, -187500.02, -187500.02, -187500.02, -187500.02, 0.00, 0.00, 0.00
12, -187500.02, -187500.02, -3148.06, -187500.02, -187500.02, -187500.02, -187500.02, -187500.02, 0.00, 0.00, 0.00
13, -187500.02, -187500.02, -3240.20, -187500.02, -187500.02, -187500.02, -187500.02, -187500.02, -0.01, 0.01, 1.02
14, -187500.02, -187500.02, -3280.74, -187500.02, -187500.02, -187500.02, -187500.02, -187500.02, 0.00, 0.00, 0.00
15, -187500.02, -187500.02, -3212.30, -187500.02, -187500.02, -187500.02, -187500.02, -187500.02, 0.00, 0.00, 0.00
16, -187500.02, -187500.02, -3144.67, -187500.02, -187500.02, -187500.02, -187500.02, -187500.02, 0.00, 0.00, 0.00
17, -187500.02, -187500.02, -3215.21, -187500.02, -187500.02, -187500.02, -187500.02, -187500.02, 0.00, 0.00, 0.00
18, -187500.02, -187500.02, -3278.71, -187500.02, -187500.02, -187500.02, -187500.02, -187500.02, 0.00, 0.00, 0.00
19, -187500.02, -187500.02, -3213.17, -187500.02, -187500.02, -187500.02, -187500.02, -187500.02, 0.00, 0.00, 0.00
20, -187500.02, -187500.02, -3141.18, -187500.02, -187500.02, -187500.02, -187500.02, -187500.02, 0.00, 0.00, 0.00
21, -187500.02, -187500.02, -3191.99, -187500.02, -187500.02, -187500.02, -187500.02, -187500.02, 0.00, 0.00, 0.00
22, -187500.02, -187500.02, -3289.77, -187500.02, -187500.02, -187500.02, -187500.02, -187500.02, 0.00, 0.00, 0.00
23, -187500.02, -187500.02, -3226.18, -187500.02, -187500.02, -187500.02, -187500.02, -187500.02, -0.02, 0.01, 1.02
24, -187500.02, -187500.02, -3153.09, -187500.02, -187500.02, -187500.02, -187500.02, -187500.02, 0.00, 0.00, 0.00
25, -187500.02, -187500.02, -3174.53, -187500.02, -187500.02, -187500.02, -187500.02, -187500.02, 0.00, 0.00, 0.00
26, -187500.02, -187500.02, -3291.54, -187500.02, -187500.02, -187500.02, -187500.02, -187500.02, 0.00, 0.00, 0.00
27, -187500.02, -187500.02, -3281.73, -187500.02, -187500.02, -187500.02, -187500.02, -187500.02, 0.00, 0.00, 0.00
28, -187500.02, -187500.02, -3191.11, -187500.02, -187500.02, -187500.02, -187500.02, -187500.02, 0.00, 0.00, 0.00
29, -187500.02, -187500.02, -3139.35, -187500.02, -187500.02, -187500.02, -187500.02, -187500.02, 0.00, 0.00, 0.00
30, -187500.02, -187500.02, -3264.47, -187500.02, -187500.02, -187500.02, -187500.02, -187500.02, 0.00, 0.00, 0.00
31, -187500.02, -187500.02, -3267.49, -187500.02, -187500.02, -187500.02, -187500.02, -187500.02, 0.00, 0.00, 0.00
32, -187500.02, -187500.02, -3175.38, -187500.02, -187500.02, -187500.02, -187500.02, -187500.02, 0.00, 0.00, 0.00
33, -187500.02, -187500.02, -3147.66, -187500.02, -187500.02, -187500.02, -187500.02, -187500.02, -0.02, 0.01, 1.03
34, -187500.02, -187500.02, -3279.00, -187500.02, -187500.02, -187500.02, -187500.02, -187500.02, 0.00, 0.00, 0.00
35, -187500.02, -187500.02, -3278.98, -187500.02, -187500.02, -187500.02, -187500.02, -187500.02, 0.00, 0.00, 0.00
36, -187500.02, -187500.02, -3184.21, -187500.02, -187500.02, -187500.02, -187500.02, -187500.02, 0.00, 0.00, 0.00
37, -187500.02, -187500.02, -3159.02, -187500.02, -187500.02, -187500.02, -187500.02, -187500.02, 0.00, 0.00, 0.00
38, -187500.02, -187500.02, -3303.01, -187500.02, -187500.02, -187500.02, -187500.02, -187500.02, 0.00, 0.00, 0.00
39, -187500.02, -187500.02, -3339.28, -187500.02, -187500.02, -187500.02, -187500.02, -187500.02, 0.00, 0.00, 0.00
40, -187500.02, -187500.02, -3215.39, -187500.02, -187500.02, -187500.02, -187500.02, -187500.02, 0.00, 0.00, 0.00
41, -187500.02, -187500.02, -3110.33, -187500.02, -187500.02, -187500.02, -187500.02, -187500.02, 0.00, 0.00, 0.00
42, -187500.02, -187500.02, -3178.46, -187500.02, -187500.02, -187500.02, -187500.02, -187500.02, 0.00, 0.00, 0.00
43, -187500.02, -187500.02, -3280.27, -187500.02, -187500.02, -187500.02, -187500.02, -187500.02, -0.02, 0.01, 1.03
44, -187500.02, -187500.02, -3218.18, -187500.02, -187500.02, -187500.02, -187500.02, -187500.02, 0.00, 0.00, 0.00
45, -187500.02, -187500.02, -3166.59, -187500.02, -187500.02, -187500.02, -187500.02, -187500.02, 0.00, 0.00, 0.00
46, -187500.02, -187500.02, -3214.49, -187500.02, -187500.02, -187500.02, -187500.02, -187500.02, 0.00, 0.00, 0.00
47, -187500.02, -187500.02, -3298.33, -187500.02, -187500.02, -187500.02, -187500.02, -187500.02, 0.00, 0.00, 0.00
48, -187500.02, -187500.02, -3259.60, -187500.02, -187500.02, -187500.02, -187500.02, -187500.02, 0.00, 0.00, 0.00
49, -187500.02, -187500.02, -3195.38, -187500.02, -187500.02, -187500.02, -187500.02, -187500.02, 0.00, 0.00, 0.00
50, -187500.02, -187500.02, -3253.61, -187500.02, -187500.02, -187500.02, -187500.02, -187500.02, 0.00, 0.00, 0.00
51, -187500.02, -187500.02, -3370.87, -187500.02, -187500.02, -187500.02, -187500.02, -187500.02, 0.00, 0.00, 0.00
52, -187500.02, -187500.02, -3211.61, -187500.02, -187500.02, -187500.02, -187500.02, -187500.02, 0.00, 0.00, 0.00
53, -187500.02, -187500.02, -3097.24, -187500.02, -187500.02, -187500.02, -187500.02, -187500.02, 0.00, 0.00, 0.00
54, -187500.02, -187500.02, -3117.49, -187500.02, -187500.02, -187500.02, -187500.02, -187500.02, -0.02, 0.01, 1.02
55, -187500.02, -187500.02, -3212.97, -187500.02, -187500.02, -187500.02, -187500.02, -187500.02, 0.00, 0.00, 0.00
56, -187500.02, -187500.02, -3220.69, -187500.02, -187500.02, -187500.02, -187500.02, -187500.02, 0.00, 0.00, 0.00
57, -187500.02, -187500.02, -3140.42, -187500.02, -187500.02, -187500.02, -187500.02, -187500.02, 0.00, 0.00, 0.00
58, -187500.02, -187500.02, -3100.54, -187500.02, -187500.02, -187500.02, -187500.02, -187500.02, 0.00, 0.00, 0.00
59, -187500.02, -187500.02, -3238.19, -187500.02, -187500.02, -187500.02, -187500.02, -187500.02, 0.00, 0.00, 0.00
60, -187500.02, -187500.02, -3274.40, -187500.02, -187500.02, -187500.02, -187500.02, -187500.02, 0.00, 0.00, 0.00
61, -187500.02, -187500.02, -3197.60, -187500.02, -187500.02, -187500.02, -187500.02, -187500.02, 0.00, 0.00, 0.00
62, -187500.02, -187500.02, -3124.08, -187500.02, -187500.02, -187500.02, -187500.02, -187500.02, 0.00, 0.00, 0.00
63, -187500.02, -187500.02, -3208.91, -187500.02, -187500.02, -187500.02, -187500.02, -187500.02, 0.00, 0.00, 0.00
64, -187500.02, -187500.02, -3279.74, -187500.02, -187500.02, -187500.02, -187500.02, -187500.02, -0.02, 0.02, 1.02
65, -187500.02, -187500.02, -3223.86, -187500.02, -187500.02, -187500.02, -187500.02, -187500.02, 0.00, 0.00, 0.00
66, -187500.02, -187500.02, -3190.22, -187500.02, -187500.02, -187500.02, -187500.02, -187500.02, 0.00, 0.00, 0.00
67, -187500.02, -187500.02, -3300.59, -187500.02, -187500.02, -187500.02, -187500.02, -187500.02, 0.00, 0.00, 0.00
68, -187500.02, -187500.02, -3369.06, -187500.02, -187500.02, -187500.02, -187500.02, -187500.02, 0.00, 0.00, 0.00
69, -187500.02, -187500.02, -3309.15, -187500.02, -187500.02, -187500.02, -187500.02, -187500.02, 0.00, 0.00, 0.00
70, -187500.02, -187500.02, -3265.28, -187500.02, -187500.02, -187500.02, -187500.02, -187500.02, 0.00, 0.00, 0.00
71, -187500.02, -187500.02, -3195.83, -187500.02, -187500.02, -187500.02, -187500.02, -187500.02, 0.00, 0.00, 0.00
72, -187500.02, -187500.02, -3207.94, -187500.02, -187500.02, -187500.02, -187500.02, -187500.02, 0.00, 0.00, 0.00
73, -187500.02, -187500.02, -3184.74, -187500.02, -187500.02, -187500.02, -187500.02, -187500.02, 0.00, 0.00, 0.00
74, -187500.02, -187500.02, -3132.13, -187500.02, -187500.02, -187500.02, -187500.02, -187500.02, -0.02, 0.01, 1.03
75, -187500.02, -187500.02, -3074.37, -187500.02, -187500.02, -187500.02, -187500.02, -187500.02, 0.00, 0.00, 0.00
76, -187500.02, -187500.02, -3211.48, -187500.02, -187500.02, -187500.02, -187500.02, -187500.02, 0.00, 0.00, 0.00
77, -187500.02, -187500.02, -3240.40, -187500.02, -187500.02, -187500.02, -187500.02, -187500.02, 0.00, 0.00, 0.00
78, -187500.02, -187500.02, -3169.57, -187500.02, -187500.02, -187500.02, -187500.02, -187500.02, 0.00, 0.00, 0.00
79, -187500.02, -187500.02, -3135.32, -187500.02, -187500.02, -187500.02, -187500.02, -187500.02, 0.00, 0.00, 0.00
80, -187500.02, -187500.02, -3316.53, -187500.02, -187500.02, -187500.02, -187500.02, -187500.02, 0.00, 0.00, 0.00
81, -187500.02, -187500.02, -3327.21, -187500.02, -187500.02, -187500.02, -187500.02, -187500.02, 0.00, 0.00, 0.00
82, -187500.02, -187500.02, -3163.60, -187500.02, -187500.02, -187500.02, -187500.02, -187500.02, 0.00, 0.00, 0.00
83, -187500.02, -187500.02, -3083.07, -187500.02, -187500.02, -187500.02, -187500.02, -187500.02, 0.00, 0.00, 0.00
84, -187500.02, -187500.02, -3173.57, -187500.02, -187500.02, -187500.02, -187500.02, -187500.02, -0.02, 0.02, 1.02
85, -187500.02, -187500.02, -3240.22, -187500.02, -187500.02, -187500.02, -187500.02, -187500.02, 0.00, 0.00, 0.00
86, -187500.02, -187500.02, -3195.34, -187500.02, -187500.02, -187500.02, -187500.02, -187500.02, 0.00, 0.00, 0.00
87, -187500.02, -187500.02, -3209.13, -187500.02, -187500.02, -187500.02, -187500.02, -187500.02, 0.00, 0.00, 0.00
88, -187500.02, -187500.02, -3321.04, -187500.02, -187500.02, -187500.02, -187500.02, -187500.02, 0.00, 0.00, 0.00
89, -187500.02, -187500.02, -3317.40, -187500.02, -187500.02, -187500.02, -187500.02, -187500.02, 0.00, 0.00, 0.00
90, -187500.02, -187500.02, -3244.36, -187500.02, -187500.02, -187500.02, -187500.02, -187500.02, 0.00, 0.00, 0.00
91, -187500.02, -187500.02, -3138.03, -187500.02, -187500.02, -187500.02, -187500.02, -187500.02, 0.00, 0.00, 0.00
92, -187500.02, -187500.02, -3086.26, -187500.02, -187500.02, -187500.02, -187500.02, -187500.02, 0.00, 0.00, 0.00
93, -187500.02, -187500.02, -3211.63, -187500.02, -187500.02, -187500.02, -187500.02, -187500.02, 0.00, 0.00, 0.00
94, -187500.02, -187500.02, -3204.55, -187500.02, -187500.02, -187500.02, -187500.02, -187500.02, -0.02, 0.01, 1.02
95, -187500.02, -187500.02, -3115.79, -187500.02, -187500.02, -187500.02, -187500.02, -187500.02, 0.00, 0.00, 0.00
96, -187500.02, -187500.02, -3158.32, -187500.02, -187500.02, -187500.02, -187500.02, -187500.02, 0.00, 0.00, 0.00
97, -187500.02, -187500.02, -3255.73, -187500.02, -187500.02, -187500.02, -187500.02, -187500.02, 0.00, 0.00, 0.00
98, -187500.02, -187500.02, -3271.87, -187500.02, -187500.02, -187500.02, -187500.02, -187500.02, 0.00, 0.00, 0.00
99, -187500.02, -187500.02, -3227.23, -187500.02, -187500.02, -187500.02, -187500.02, -187500.02, 0.00, 0.00, 0.00
100, -187500.02, -187500.02, -3161.77, -187500.02, -187500.02, -187500.02, -187500.02, -187500.02, 0.00, 0.00, 0.00
101, -187500.02, -187500.02, -3232.38, -187500.02, -187500.02, -187500.02, -187500.02, -187500.02, 0.00, 0.00, 0.00
102, -187500.02, -187500.02, -3283.45, -187500.02, -187500.02, -187500.02, -187500.02, -187500.02, 0.00, 0.00, 0.00
103, -187500.02, -187500.02, -3191.56, -187500.02, -187500.02, -187500.02, -187500.02, -187500.02, 0.00, 0.00, 0.00
104, -187500.02, -187500.02, -3117.84, -187500.02, -187500.02, -187500.02, -187500.02, -187500.02, -0.02, 0.01, 1.01
105, -187500.02, -187500.02, -3220.28, -187500.02, -187500.02, -187500.02, -187500.02, -187500.02, 0.00, 0.00, 0.00
106, -187500.02, -187500.02, -3251.37, -187500.02, -187500.02, -187500.02, -187500.02, -187500.02, 0.00, 0.00, 0.00
107, -187500.02, -187500.02, -3182.60, -187500.02, -187500.02, -187500.02, -187500.02, -187500.02, 0.00, 0.00, 0.00
108, -187500.02, -187500.02, -3154.10, -187500.02, -187500.02, -187500.02, -187500.02, -187500.02, 0.00, 0.00, 0.00
109, -187500.02, -187500.02, -3264.74, -187500.02, -187500.02, -187500.02, -187500.02, -187500.02, 0.00, 0.00, 0.00
110, -187500.02, -187500.02, -3242.52, -187500.02, -187500.02, -187500.02, -187500.02, -187500.02, 0.00, 0.00, 0.00
111, -187500.02, -187500.02, -3187.36, -187500.02, -187500.02, -187500.02, -187500.02, -187500.02, 0.00, 0.00, 0.00
112, -187500.02, -187500.02, -3132.89, -187500.02, -187500.02, -187500.02, -187500.02, -187500.02, 0.00, 0.00, 0.00
113, -187500.02, -187500.02, -3178.53, -187500.02, -187500.02, -187500.02, -187500.02, -187500.02, 0.00, 0.00, 0.00
114, -187500.02, -187500.02, -3252.34, -187500.02, -187500.02, -187500.02, -187500.02, -187500.02, -0.02, 0.01, 1.02
115, -187500.02, -187500.02, -3201.82, -187500.02, -187500.02, -187500.02, -187500.02, -187500.02, 0.00, 0.00, 0.00
116, -187500.02, -187500.02, -3128.55, -187500.02, -187500.02, -187500.02, -187500.02, -187500.02, 0.00, 0.00, 0.00
117, -187500.02, -187500.02, -3184.32, -187500.02, -187500.02, -187500.02, -187500.02, -187500.02, 0.00, 0.00, 0.00
118, -187500.02, -187500.02, -3292.61, -187500.02, -187500.02, -187500.02, -187500.02, -187500.02, 0.00, 0.00, 0.00
119, -187500.02, -187500.02, -3242.70, -187500.02, -187500.02, -187500.02, -187500.02, -187500.02, 0.00, 0.00, 0.00
120, -187500.02, -187500.02, -3148.85, -187500.02, -187500.02, -187500.02, -187500.02, -187500.02, 0.00, 0.00, 0.00
121, -187500.02, -187500.02, -3170.68, -187500.02, -187500.02, -187500.02, -187500.02, -187500.02, 0.00, 0.00, 0.00
122, -187500.02, -187500.02, -3299.23, -187500.02, -187500.02, -187500.02, -187500.02, -187500.02, 0.00, 0.00, 0.00
123, -187500.02, -187500.02, -3257.12, -187500.02, -187500.02, -187500.02, -187500.02, -187500.02, 0.00, 0.00, 0.00
124, -187500.02, -187500.02, -3173.10, -187500.02, -187500.02, -187500.02, -187500.02, -187500.02, 0.00, 0.00, 0.00
125, -187500.02, -187500.02, -3140.44, -187500.02, -187500.02, -187500.02, -187500.02, -187500.02, -0.02, 0.01, 1.02
126, -187500.02, -187500.02, -3267.24, -187500.02, -187500.02, -187500.02, -187500.02, -187500.02, 0.00, 0.00, 0.00
127, -187500.02, -187500.02, -3262.62, -187500.02, -187500.02, -187500.02, -187500.02, -187500.02, 0.00, 0.00, 0.00
128, -187500.02, -187500.02, -3182.40, -187500.02, -187500.02, -187500.02, -187500.02, -187500.02, 0.00, 0.00, 0.00
129, -187500.02, -187500.02, -3140.60, -187500.02, -187500.02, -187500.02, -187500.02, -187500.02, 0.00, 0.00, 0.00
130, -187500.02, -187500.02, -3263.09, -187500.02, -187500.02, -187500.02, -187500.02, -187500.02, 0.00, 0.00, 0.00
131, -187500.02, -187500.02, -3283.52, -187500.02, -187500.02, -187500.02, -187500.02, -187500.02, 0.00, 0.00, 0.00
132, -187500.02, -187500.02, -3192.25, -187500.02, -187500.02, -187500.02, -187500.02, -187500.02, 0.00, 0.00, 0.00
133, -187500.02, -187500.02, -3134.97, -187500.02, -187500.02, -187500.02, -187500.02, -187500.02, 0.00, 0.00, 0.00
134, -187500.02, -187500.02, -3225.02, -187500.02, -187500.02, -187500.02, -187500.02, -187500.02, 0.00, 0.00, 0.00
135, -187500.02, -187500.02, -3284.48, -187500.02, -187500.02, -187500.02, -187500.02, -187500.02, -0.02, 0.01, 1.02
136, -187500.02, -187500.02, -3207.97, -187500.02, -187500.02, -187500.02, -187500.02, -187500.02, 0.00, 0.00, 0.00
137, -187500.02, -187500.02, -3136.11, -187500.02, -187500.02, -187500.02, -187500.02, -187500.02, 0.00, 0.00, 0.00
138, -187500.02, -187500.02, -3189.06, -187500.02, -187500.02, -187500.02, -187500.02, -187500.02, 0.00, 0.00, 0.00
139, -187500.02, -187500.02, -3277.93, -187500.02, -187500.02, -187500.02, -187500.02, -187500.02, 0.00, 0.00, 0.00
140, -187500.02, -187500.02, -3227.75, -187500.02, -187500.02, -187500.02, -187500.02, -187500.02, 0.00, 0.00, 0.00
141, -187500.02, -187500.02, -3222.27, -187500.02, -187500.02, -187500.02, -187500.02, -187500.02, 0.00, 0.00, 0.00
142, -187500.02, -187500.02, -3249.97, -187500.02, -187500.02, -187500.02, -187500.02, -187500.02, 0.00, 0.00, 0.00
143, -187500.02, -187500.02, -3237.23, -187500.02, -187500.02, -187500.02, -187500.02, -187500.02, 0.00, 0.00, 0.00
144, -187500.02, -187500.02, -3171.69, -187500.02, -187500.02, -187500.02, -187500.02, -187500.02, 0.00, 0.00, 0.00
145, -187500.02, -187500.02, -3115.32, -187500.02, -187500.02, -187500.02, -187500.02, -187500.02, -0.02, 0.01, 1.02
146, -187500.02, -187500.02, -3126.43, -187500.02, -187500.02, -187500.02, -187500.02, -187500.02, 0.00, 0.00, 0.00
147, -187500.02, -187500.02, -3248.58, -187500.02, -187500.02, -187500.02, -187500.02, -187500.02, 0.00, 0.00, 0.00
148, -187500.02, -187500.02, -3223.84, -187500.02, -187500.02, -187500.02, -187500.02, -187500.02, 0.00, 0.00, 0.00
149, -187500.02, -187500.02, -3150.19, -187500.02, -187500.02, -187500.02, -187500.02, -187500.02, 0.00, 0.00, 0.00
150, -187500.02, -187500.02, -3124.37, -187500.02, -187500.02, -187500.02, -187500.02, -187500.02, 0.00, 0.00, 0.00
151, -187500.02, -187500.02, -3247.42, -187500.02, -187500.02, -187500.02, -187500.02, -187500.02, 0.00, 0.00, 0.00
152, -187500.02, -187500.02, -3240.13, -187500.02, -187500.02, -187500.02, -187500.02, -187500.02, 0.00, 0.00, 0.00
153, -187500.02, -187500.02, -3160.63, -187500.02, -187500.02, -187500.02, -187500.02, -187500.02, 0.00, 0.00, 0.00
154, -187500.02, -187500.02, -3114.72, -187500.02, -187500.02, -187500.02, -187500.02, -187500.02, 0.00, 0.00, 0.00
155, -187500.02, -187500.02, -3221.38, -187500.02, -187500.02, -187500.02, -187500.02, -187500.02, -0.02, 0.01, 1.01
156, -187500.02, -187500.02, -3254.86, -187500.02, -187500.02, -187500.02, -187500.02, -187500.02, 0.00, 0.00, 0.00
157, -187500.02, -187500.02, -3183.18, -187500.02, -187500.02, -187500.02, -187500.02, -187500.02, 0.00, 0.00, 0.00
158, -187500.02, -187500.02, -3115.03, -187500.02, -187500.02, -187500.02, -187500.02, -187500.02, 0.00, 0.00, 0.00
159, -187500.02, -187500.02, -3195.63, -187500.02, -187500.02, -187500.02, -187500.02, -187500.02, 0.00, 0.00, 0.00
160, -187500.02, -187500.02, -3259.22, -187500.02, -187500.02, -187500.02, -187500.02, -187500.02, 0.00, 0.00, 0.00
161, -187500.02, -187500.02, -3190.47, -187500.02, -187500.02, -187500.02, -187500.02, -187500.02, 0.00, 0.00, 0.00
162, -187500.02, -187500.02, -3117.62, -187500.02, -187500.02, -187500.02, -187500.02, -187500.02, 0.00, 0.00, 0.00
163, -187500.02, -187500.02, -3165.45, -187500.02, -187500.02, -187500.02, -187500.02, -187500.02, 0.00, 0.00, 0.00
164, -187500.02, -187500.02, -3255.62, -187500.02, -187500.02, -187500.02, -187500.02, -187500.02, 0.00, 0.00, 0.00
165, -187500.02, -187500.02, -3203.23, -187500.02, -187500.02, -187500.02, -187500.02, -187500.02, -0.02, 0.01, 1.01
166, -187500.02, -187500.02, -3122.67, -187500.02, -187500.02, -187500.02, -187500.02, -187500.02, 0.00, 0.00, 0.00
167, -187500.02, -187500.02, -3141.47, -187500.02, -187500.02, -187500.02, -187500.02, -187500.02, 0.00, 0.00, 0.00
168, -187500.02, -187500.02, -3244.80, -187500.02, -187500.02, -187500.02, -187500.02, -187500.02, 0.00, 0.00, 0.00
169, -187500.02, -187500.02, -3209.73, -187500.02, -187500.02, -187500.02, -187500.02, -187500.02, 0.00, 0.00, 0.00
170, -187500.02, -187500.02, -3127.34, -187500.02, -187500.02, -187500.02, -187500.02, -187500.02, 0.00, 0.00, 0.00
171, -187500.02, -187500.02, -3122.67, -187500.02, -187500.02, -187500.02, -187500.02, -187500.02, 0.00, 0.00, 0.00
172, -187500.02, -187500.02, -3234.07, -187500.02, -187500.02, -187500.02, -187500.02, -187500.02, 0.00, 0.00, 0.00
173, -187500.02, -187500.02, -3224.62, -187500.02, -187500.02, -187500.02, -187500.02, -187500.02, 0.00, 0.00, 0.00
174, -187500.02, -187500.02, -3137.69, -187500.02, -187500.02, -187500.02, -187500.02, -187500.02, 0.00, 0.00, 0.00
175, -187500.02, -187500.02, -3102.58, -187500.02, -187500.02, -187500.02, -187500.02, -187500.02, -0.02, 0.01, 1.02
176, -187500.02, -187500.02, -3216.06, -187500.02, -187500.02, -187500.02, -187500.02, -187500.02, 0.00, 0.00, 0.00
177, -187500.02, -187500.02, -3229.89, -187500.02, -187500.02, -187500.02, -187500.02, -187500.02, 0.00, 0.00, 0.00
178, -187500.02, -187500.02, -3154.66, -187500.02, -187500.02, -187500.02, -187500.02, -187500.02, 0.00, 0.00, 0.00
179, -187500.02, -187500.02, -3092.56, -187500.02, -187500.02, -187500.02, -187500.02, -187500.02, 0.00, 0.00, 0.00
180, -187500.02, -187500.02, -3194.98, -187500.02, -187500.02, -187500.02, -187500.02, -187500.02, 0.00, 0.00, 0.00
181, -187500.02, -187500.02, -3241.18, -187500.02, -187500.02, -187500.02, -187500.02, -187500.02, 0.00, 0.00, 0.00
182, -187500.02, -187500.02, -3161.10, -187500.02, -187500.02, -187500.02, -187500.02, -187500.02, 0.00, 0.00, 0.00
183, -187500.02, -187500.02, -3099.29, -187500.02, -187500.02, -187500.02, -187500.02, -187500.02, 0.00, 0.00, 0.00
184, -187500.02, -187500.02, -3165.34, -187500.02, -187500.02, -187500.02, -187500.02, -187500.02, 0.00, 0.00, 0.00
185, -187500.02, -187500.02, -3233.78, -187500.02, -187500.02, -187500.02, -187500.02, -187500.02, 0.00, 0.00, 0.00
186, -187500.02, -187500.02, -3172.79, -187500.02, -187500.02, -187500.02, -187500.02, -187500.02, -0.02, 0.01, 1.02
187, -187500.02, -187500.02, -3096.95, -187500.02, -187500.02, -187500.02, -187500.02, -187500.02, 0.00, 0.00, 0.00
188, -187500.02, -187500.02, -3140.80, -187500.02, -187500.02, -187500.02, -187500.02, -187500.02, 0.00, 0.00, 0.00
189, -187500.02, -187500.02, -3237.00, -187500.02, -187500.02, -187500.02, -187500.02, -187500.02, 0.00, 0.00, 0.00
190, -187500.02, -187500.02, -3184.63, -187500.02, -187500.02, -187500.02, -187500.02, -187500.02, 0.00, 0.00, 0.00
191, -187500.02, -187500.02, -3102.91, -187500.02, -187500.02, -187500.02, -187500.02, -187500.02, 0.00, 0.00, 0.00
192, -187500.02, -187500.02, -3115.61, -187500.02, -187500.02, -187500.02, -187500.02, -187500.02, 0.00, 0.00, 0.00
193, -187500.02, -187500.02, -3228.13, -187500.02, -187500.02, -187500.02, -187500.02, -187500.02, 0.00, 0.00, 0.00
194, -187500.02, -187500.02, -3199.63, -187500.02, -187500.02, -187500.02, -187500.02, -187500.02, 0.00, 0.00, 0.00
195, -187500.02, -187500.02, -3118.38, -187500.02, -187500.02, -187500.02, -187500.02, -187500.02, 0.00, 0.00, 0.00
196, -187500.02, -187500.02, -3095.56, -187500.02, -187500.02, -187500.02, -187500.02, -187500.02, -0.02, 0.02, 1.02
197, -187500.02, -187500.02, -3218.34, -187500.02, -187500.02, -187500.02, -187500.02, -187500.02, 0.00, 0.00, 0.00
198, -187500.02, -187500.02, -3213.13, -187500.02, -187500.02, -187500.02, -187500.02, -187500.02, 0.00, 0.00, 0.00
199, -187500.02, -187500.02, -3134.18, -187500.02, -187500.02, -187500.02, -187500.02, -187500.02, 0.00, 0.00, 0.00
200, -187500.02, -187500.02, -3084.05, -187500.02, -187500.02, -187500.02, -187500.02, -187500.02, 0.00, 0.00, 0.00
201, -187500.02, -187500.02, -3196.95, -187500.02, -187500.02, -187500.02, -187500.02, -187500.02, 0.00, 0.00, 0.00
202, -187500.02, -187500.02, -3219.12, -187500.02, -187500.02, -187500.02, -187500.02, -187500.02, 0.00, 0.00, 0.00
203, -187500.02, -187500.02, -3143.08, -187500.02, -187500.02, -187500.02, -187500.02, -187500.02, 0.00, 0.00, 0.00
204, -187500.02, -187500.02, -3084.59, -187500.02, -187500.02, -187500.02, -187500.02, -187500.02, 0.00, 0.00, 0.00
205, -187500.02, -187500.02, -3186.73, -187500.02, -187500.02, -187500.02, -187500.02, -187500.02, 0.00, 0.00, 0.00
206, -187500.02, -187500.02, -3230.52, -187500.02, -187500.02, -187500.02, -187500.02, -187500.02, -0.02, 0.02, 1.02
207, -187500.02, -187500.02, -3165.10, -187500.02, -187500.02, -187500.02, -187500.02, -187500.02, 0.00, 0.00, 0.00
208, -187500.02, -187500.02, -3091.25, -187500.02, -187500.02, -187500.02, -187500.02, -187500.02, 0.00, 0.00, 0.00
209, -187500.02, -187500.02, -3149.61, -187500.02, -187500.02, -187500.02, -187500.02, -187500.02, 0.00, 0.00, 0.00
210, -187500.02, -187500.02, -3231.32, -187500.02, -187500.02, -187500.02, -187500.02, -187500.02, 0.00, 0.00, 0.00
211, -187500.02, -187500.02, -3172.81, -187500.02, -187500.02, -187500.02, -187500.02, -187500.02, 0.00, 0.00, 0.00
212, -187500.02, -187500.02, -3097.64, -187500.02, -187500.02, -187500.02, -187500.02, -187500.02, 0.00, 0.00, 0.00
213, -187500.02, -187500.02, -3129.67, -187500.02, -187500.02, -187500.02, -187500.02, -187500.02, 0.00, 0.00, 0.00
214, -187500.02, -187500.02, -3236.26, -187500.02, -187500.02, -187500.02, -187500.02, -187500.02, 0.00, 0.00, 0.00
215, -187500.02, -187500.02, -3189.21, -187500.02, -187500.02, -187500.02, -187500.02, -187500.02, 0.00, 0.00, 0.00
216, -187500.02, -187500.02, -3106.58, -187500.02, -187500.02, -187500.02, -187500.02, -187500.02, -0.02, 0.02, 1.02
217, -187500.02, -187500.02, -3113.82, -187500.02, -187500.02, -187500.02, -187500.02, -187500.02, 0.00, 0.00, 0.00
218, -187500.02, -187500.02, -3231.44, -187500.02, -187500.02, -187500.02, -187500.02, -187500.02, 0.00, 0.00, 0.00
219, -187500.02, -187500.02, -3203.97, -187500.02, -187500.02, -187500.02, -187500.02, -187500.02, 0.00, 0.00, 0.00
220, -187500.02, -187500.02, -3119.74, -187500.02, -187500.02, -187500.02, -187500.02, -187500.02, 0.00, 0.00, 0.00
221, -187500.02, -187500.02, -3094.24, -187500.02, -187500.02, -187500.02, -187500.02, -187500.02, 0.00, 0.00, 0.00
222, -187500.02, -187500.02, -3213.11, -187500.02, -187500.02, -187500.02, -187500.02, -187500.02, 0.00, 0.00, 0.00
223, -187500.02, -187500.02, -3220.13, -187500.02, -187500.02, -187500.02, -187500.02, -187500.02, 0.00, 0.00, 0.00
224, -187500.02, -187500.02, -3143.50, -187500.02, -187500.02, -187500.02, -187500.02, -187500.02, 0.00, 0.00, 0.00
225, -187500.02, -187500.02, -3096.90, -187500.02, -187500.02, -187500.02, -187500.02, -187500.02, 0.00, 0.00, 0.00
226, -187500.02, -187500.02, -3192.88, -187500.02, -187500.02, -187500.02, -187500.02, -187500.02, -0.02, 0.02, 1.02
227, -187500.02, -187500.02, -3232.35, -187500.02, -187500.02, -187500.02, -187500.02, -187500.02, 0.00, 0.00, 0.00
228, -187500.02, -187500.02, -3160.67, -187500.02, -187500.02, -187500.02, -187500.02, -187500.02, 0.00, 0.00, 0.00
229, -187500.02, -187500.02, -3093.75, -187500.02, -187500.02, -187500.02, -187500.02, -187500.02, 0.00, 0.00, 0.00
230, -187500.02, -187500.02, -3173.48, -187500.02, -187500.02, -187500.02, -187500.02, -187500.02, 0.00, 0.00, 0.00
231, -187500.02, -187500.02, -3214.87, -187500.02, -187500.02, -187500.02, -187500.02, -187500.02, 0.00, 0.00, 0.00
232, -187500.02, -187500.02, -3164.00, -187500.02, -187500.02, -187500.02, -187500.02, -187500.02, 0.00, 0.00, 0.00
233, -187500.02, -187500.02, -3106.87, -187500.02, -187500.02, -187500.02, -187500.02, -187500.02, 0.00, 0.00, 0.00
234, -187500.02, -187500.02, -3143.15, -187500.02, -187500.02, -187500.02, -187500.02, -187500.02, 0.00, 0.00, 0.00
235, -187500.02, -187500.02, -3175.98, -187500.02, -187500.02, -187500.02, -187500.02, -187500.02, 0.00, 0.00, 0.00
236, -187500.02, -187500.02, -3169.34, -187500.02, -187500.02, -187500.02, -187500.02, -187500.02, -0.02, 0.02, 1.02
237, -187500.02, -187500.02, -3140.71, -187500.02, -187500.02, -187500.02, -187500.02, -187500.02, 0.00, 0.00, 0.00
238, -187500.02, -187500.02, -3147.62, -187500.02, -187500.02, -187500.02, -187500.02, -187500.02, 0.00, 0.00, 0.00
239, -187500.02, -187500.02, -3162.95, -187500.02, -187500.02, -187500.02, -187500.02, -187500.02, 0.00, 0.00, 0.00
240, -187500.02, -187500.02, -3167.62, -187500.02, -187500.02, -187500.02, -187500.02, -187500.02, 0.00, 0.00, 0.00
241, -187500.02, -187500.02, -3141.69, -187500.02, -187500.02, -187500.02, -187500.02, -187500.02, 0.00, 0.00, 0.00
242, -187500.02, -187500.02, -3138.92, -187500.02, -187500.02, -187500.02, -187500.02, -187500.02, 0.00, 0.00, 0.00
243, -187500.02, -187500.02, -3162.59, -187500.02, -187500.02, -187500.02, -187500.02, -187500.02, 0.00, 0.00, 0.00
244, -187500.02, -187500.02, -3166.50, -187500.02, -187500.02, -187500.02, -187500.02, -187500.02, 0.00, 0.00, 0.00
245, -187500.02, -187500.02, -3150.01, -187500.02, -187500.02, -187500.02, -187500.02, -187500.02, 0.00, 0.00, 0.00
246, -187500.02, -187500.02, -3142.12, -187500.02, -187500.02, -187500.02, -187500.02, -187500.02, 0.00, 0.00, 0.00
247, -187500.02, -187500.02, -3161.63, -187500.02, -187500.02, -187500.02, -187500.02, -187500.02, -0.02, 0.01, 1.02
248, -187500.02, -187500.02, -3169.45, -187500.02, -187500.02, -187500.02, -187500.02, -187500.02, 0.00, 0.00, 0.00
249, -187500.02, -187500.02, -3153.54, -187500.02, -187500.02, -187500.02, -187500.02, -187500.02, 0.00, 0.00, 0.00
250, -187500.02, -187500.02, -3142.66, -187500.02, -187500.02, -187500.02, -187500.02, -187500.02, 0.00, 0.00, 0.00
251, -187500.02, -187500.02, -3161.21, -187500.02, -187500.02, -187500.02, -187500.02, -187500.02, 0.00, 0.00, 0.00
252, -187500.02, -187500.02, -3160.87, -187500.02, -187500.02, -187500.02, -187500.02, -187500.02, 0.00, 0.00, 0.00
253, -187500.02, -187500.02, -3152.91, -187500.02, -187500.02, -187500.02, -187500.02, -187500.02, 0.00, 0.00, 0.00
254, -187500.02, -187500.02, -3133.02, -187500.02, -187500.02, -187500.02, -187500.02, -187500.02, 0.00, 0.00, 0.00
255, -187500.02, -187500.02, -3152.60, -187500.02, -187500.02, -187500.02, -187500.02, -187500.02, 0.00, 0.00, 0.00
0, -187500.02, -187500.02, -3171.73, -187500.02, -187500.02, -187500.02, -187500.02, -187500.02, 0.00, 0.00, 0.00
1, -187500.02, -187500.02, -3161.88, -187500.02, -187500.02, -187500.02, -187500.02, -187500.02, -0.02, 0.02, 1.02
2, -187500.02, -187500.02, -3130.85, -187500.02, -187500.02, -187500.02, -187500.02, -187500.02, 0.00, 0.00, 0.00
3, -187500.02, -187500.02, -3141.78, -187500.02, -187500.02, -187500.02, -187500.02, -187500.02, 0.00, 0.00, 0.00
4, -187500.02, -187500.02, -3162.37, -187500.02, -187500.02, -187500.02, -187500.02, -187500.02, 0.00, 0.00, 0.00
5, -187500.02, -187500.02, -3164.38, -187500.02, -187500.02, -187500.02, -187500.02, -187500.02, 0.00, 0.00, 0.00
6, -187500.02, -187500.02, -3144.53, -187500.02, -187500.02, -187500.02, -187500.02, -187500.02, 0.00, 0.00, 0.00
7, -187500.02, -187500.02, -3149.96, -187500.02, -187500.02, -187500.02, -187500.02, -187500.02, 0.00, 0.00, 0.00
8, -187500.02, -187500.02, -3170.84, -187500.02, -187500.02, -187500.02, -187500.02, -187500.02, 0.00, 0.00, 0.00
9, -187500.02, -187500.02, -3177.32, -187500.02, -187500.02, -187500.02, -187500.02, -187500.02, 0.00, 0.00, 0.00
10, -187500.02, -187500.02, -3150.90, -187500.02, -187500.02, -187500.02, -187500.02, -187500.02, 0.00, 0.00, 0.00
11, -187500.02, -187500.02, -3143.88, -187500.02, -187500.02, -187500.02, -187500.02, -187500.02, -0.02, 0.01, 1.03
12, -187500.02, -187500.02, -3156.00, -187500.02, -187500.02, -187500.02, -187500.02, -187500.02, 0.00, 0.00, 0.00
13, -187500.02, -187500.02, -3155.46, -187500.02, -187500.02, -187500.02, -187500.02, -187500.02, 0.00, 0.00, 0.00
14, -187500.02, -187500.02, -3143.48, -187500.02, -187500.02, -187500.02, -187500.02, -187500.02, 0.00, 0.00, 0.00
15, -187500.02, -187500.02, -3131.37, -187500.02, -187500.02, -187500.02, -187500.02, -187500.02, 0.00, 0.00, 0.00
16, -187500.02, -187500.02, -3153.07, -187500.02, -187500.02, -187500.02, -187500.02, -187500.02, 0.00, 0.00, 0.00
17, -187500.02, -187500.02, -3173.79, -187500.02, -187500.02, -187500.02, -187500.02, -187500.02, 0.00, 0.00, 0.00
18, -187500.02, -187500.02, -3157.05, -187500.02, -187500.02, -187500.02, -187500.02, -187500.02, 0.00, 0.00, 0.00
19, -187500.02, -187500.02, -3135.41, -187500.02, -187500.02, -187500.02, -187500.02, -187500.02, 0.00, 0.00, 0.00
20, -187500.02, -187500.02, -3154.17, -187500.02, -187500.02, -187500.02, -187500.02, -187500.02, 0.00, 0.00, 0.00
21, -187500.02, -187500.02, -3181.93, -187500.02, -187500.02, -187500.02, -187500.02, -187500.02, -0.02, 0.01, 1.03
22, -187500.02, -187500.02, -3173.66, -187500.02, -187500.02, -187500.02, -187500.02, -187500.02, 0.00, 0.00, 0.00
23, -187500.02, -187500.02, -3132.04, -187500.02, -187500.02, -187500.02, -187500.02, -187500.02, 0.00, 0.00, 0.00
24, -187500.02, -187500.02, -3132.98, -187500.02, -187500.02, -187500.02, -187500.02, -187500.02, 0.00, 0.00, 0.00
25, -187500.02, -187500.02, -3175.94, -187500.02, -187500.02, -187500.02, -187500.02, -187500.02, 0.00, 0.00, 0.00
26, -187500.02, -187500.02, -3168.85, -187500.02, -187500.02, -187500.02, -187500.02, -187500.02, 0.00, 0.00, 0.00
27, -187500.02, -187500.02, -3140.42, -187500.02, -187500.02, -187500.02, -187500.02, -187500.02, 0.00, 0.00, 0.00
28, -187500.02, -187500.02, -3151.89, -187500.02, -187500.02, -187500.02, -187500.02, -187500.02, 0.00, 0.00, 0.00
29, -187500.02, -187500.02, -3172.63, -187500.02, -187500.02, -187500.02, -187500.02, -187500.02, 0.00, 0.00, 0.00
30, -187500.02, -187500.02, -3166.91, -187500.02, -187500.02, -187500.02, -187500.02, -187500.02, 0.00, 0.00, 0.00
31, -187500.02, -187500.02, -3135.12, -187500.02, -187500.02, -187500.02, -187500.02, -187500.02, -0.02, 0.02, 1.03
32, -187500.02, -187500.02, -3144.15, -187500.02, -187500.02, -187500.02, -187500.02, -187500.02, 0.00, 0.00, 0.00
33, -187500.02, -187500.02, -3162.44, -187500.02, -187500.02, -187500.02, -187500.02, -187500.02, 0.00, 0.00, 0.00
34, -187500.02, -187500.02, -3164.25, -187500.02, -187500.02, -187500.02, -187500.02, -187500.02, 0.00, 0.00, 0.00
35, -187500.02, -187500.02, -3147.97, -187500.02, -187500.02, -187500.02, -187500.02, -187500.02, 0.00, 0.00, 0.00
36, -187500.02, -187500.02, -3136.28, -187500.02, -187500.02, -187500.02, -187500.02, -187500.02, 0.00, 0.00, 0.00
37, -187500.02, -187500.02, -3153.50, -187500.02, -187500.02, -187500.02, -187500.02, -187500.02, 0.00, 0.00, 0.00
38, -187500.02, -187500.02, -3165.88, -187500.02, -187500.02, -187500.02, -187500.02, -187500.02, 0.00, 0.00, 0.00
39, -187500.02, -187500.02, -3150.19, -187500.02, -187500.02, -187500.02, -187500.02, -187500.02, 0.00, 0.00, 0.00
40, -187500.02, -187500.02, -3138.50, -187500.02, -187500.02, -187500.02, -187500.02, -187500.02, 0.00, 0.00, 0.00
41, -187500.02, -187500.02, -3150.50, -187500.02, -187500.02, -187500.02, -187500.02, -187500.02, -0.02, 0.02, 1.03
42, -187500.02, -187500.02, -3160.63, -187500.02, -187500.02, -187500.02, -187500.02, -187500.02, 0.00, 0.00, 0.00
43, -187500.02, -187500.02, -3150.79, -187500.02, -187500.02, -187500.02, -187500.02, -187500.02, 0.00, 0.00, 0.00
44, -187500.02, -187500.02, -3136.66, -187500.02, -187500.02, -187500.02, -187500.02, -187500.02, 0.00, 0.00, 0.00
45, -187500.02, -187500.02, -3150.61, -187500.02, -187500.02, -187500.02, -187500.02, -187500.02, 0.00, 0.00, 0.00
46, -187500.02, -187500.02, -3155.89, -187500.02, -187500.02, -187500.02, -187500.02, -187500.02, 0.00, 0.00, 0.00
47, -187500.02, -187500.02, -3154.08, -187500.02, -187500.02, -187500.02, -187500.02, -187500.02, 0.00, 0.00, 0.00
48, -187500.02, -187500.02, -3134.05, -187500.02, -187500.02, -187500.02, -187500.02, -187500.02, 0.00, 0.00, 0.00
49, -187500.02, -187500.02, -3139.50, -187500.02, -187500.02, -187500.02, -187500.02, -187500.02, 0.00, 0.00, 0.00
50, -187500.02, -187500.02, -3158.73, -187500.02, -187500.02, -187500.02, -187500.02, -187500.02, 0.00, 0.00, 0.00
51, -187500.02, -187500.02, -3161.63, -187500.02, -187500.02, -187500.02, -187500.02, -187500.02, 0.00, 0.00, 0.00
52, -187500.02, -187500.02, -3137.51, -187500.02, -187500.02, -187500.02, -187500.02, -187500.02, -0.01, 0.02, 1.03
53, -187500.02, -187500.02, -3142.39, -187500.02, -187500.02, -187500.02, -187500.02, -187500.02, 0.00, 0.00, 0.00
54, -187500.02, -187500.02, -3162.44, -187500.02, -187500.02, -187500.02, -187500.02, -187500.02, 0.00, 0.00, 0.00
55, -187500.02, -187500.02, -3160.31, -187500.02, -187500.02, -187500.02, -187500.02, -187500.02, 0.00, 0.00, 0.00
56, -187500.02, -187500.02, -3139.82, -187500.02, -187500.02, -187500.02, -187500.02, -187500.02, 0.00, 0.00, 0.00
57, -187500.02, -187500.02, -3138.72, -187500.02, -187500.02, -187500.02, -187500.02, -187500.02, 0.00, 0.00, 0.00
58, -187500.02, -187500.02, -3154.03, -187500.02, -187500.02, -187500.02, -187500.02, -187500.02, 0.00, 0.00, 0.00
59, -187500.02, -187500.02, -3163.76, -187500.02, -187500.02, -187500.02, -187500.02, -187500.02, 0.00, 0.00, 0.00
60, -187500.02, -187500.02, -3143.86, -187500.02, -187500.02, -187500.02, -187500.02, -187500.02, 0.00, 0.00, 0.00
61, -187500.02, -187500.02, -3139.41, -187500.02, -187500.02, -187500.02, -187500.02, -187500.02, 0.00, 0.00, 0.00
62, -187500.02, -187500.02, -3155.49, -187500.02, -187500.02, -187500.02, -187500.02, -187500.02, -0.02, 0.01, 1.02
63, -187500.02, -187500.02, -3167.58, -187500.02, -187500.02, -187500.02, -187500.02, -187500.02, 0.00, 0.00, 0.00
64, -187500.02, -187500.02, -3155.08, -187500.02, -187500.02, -187500.02, -187500.02, -187500.02, 0.00, 0.00, 0.00
65, -187500.02, -187500.02, -3139.01, -187500.02, -187500.02, -187500.02, -187500.02, -187500.02, 0.00, 0.00, 0.00
66, -187500.02, -187500.02, -3153.21, -187500.02, -187500.02, -187500.02, -187500.02, -187500.02, 0.00, 0.00, 0.00
67, -187500.02, -187500.02, -3165.10, -187500.02, -187500.02, -187500.02, -187500.02, -187500.02, 0.00, 0.00, 0.00
68, -187500.02, -187500.02, -3156.40, -187500.02, -187500.02, -187500.02, -187500.02, -187500.02, 0.00, 0.00, 0.00
69, -187500.02, -187500.02, -3141.11, -187500.02, -187500.02, -187500.02, -187500.02, -187500.02, 0.00, 0.00, 0.00
70, -187500.02, -187500.02, -3154.43, -187500.02, -187500.02, -187500.02, -187500.02, -187500.02, 0.00, 0.00, 0.00
71, -187500.02, -187500.02, -3160.67, -187500.02, -187500.02, -187500.02, -187500.02, -187500.02, 0.00, 0.00, 0.00
72, -187500.02, -187500.02, -3153.18, -187500.02, -187500.02, -187500.02, -187500.02, -187500.02, -0.02, 0.01, 1.02
73, -187500.02, -187500.02, -3136.46, -187500.02, -187500.02, -187500.02, -187500.02, -187500.02, 0.00, 0.00, 0.00
74, -187500.02, -187500.02, -3147.84, -187500.02, -187500.02, -187500.02, -187500.02, -187500.02, 0.00, 0.00, 0.00
75, -187500.02, -187500.02, -3172.56, -187500.02, -187500.02, -187500.02, -187500.02, -187500.02, 0.00, 0.00, 0.00
76, -187500.02, -187500.02, -3167.89, -187500.02, -187500.02, -187500.02, -187500.02, -187500.02, 0.00, 0.00, 0.00
77, -187500.02, -187500.02, -3130.83, -187500.02, -187500.02, -187500.02, -187500.02, -187500.02, 0.00, 0.00, 0.00
78, -187500.02, -187500.02, -3141.11, -187500.02, -187500.02, -187500.02, -187500.02, -187500.02, 0.00, 0.00, 0.00
79, -187500.02, -187500.02, -3158.88, -187500.02, -187500.02, -187500.02, -187500.02, -187500.02, 0.00, 0.00, 0.00
80, -187500.02, -187500.02, -3166.44, -187500.02, -187500.02, -187500.02, -187500.02, -187500.02, 0.00, 0.00, 0.00
81, -187500.02, -187500.02, -3143.73, -187500.02, -187500.02, -187500.02, -187500.02, -187500.02, 0.00, 0.00, 0.00
82, -187500.02, -187500.02, -3141.29, -187500.02, -187500.02, -187500.02, -187500.02, -187500.02, -0.02, 0.02, 1.02
83, -187500.02, -187500.02, -3155.75, -187500.02, -187500.02, -187500.02, -187500.02, -187500.02, 0.00, 0.00, 0.00
84, -187500.02, -187500.02, -3158.84, -187500.02, -187500.02, -187500.02, -187500.02, -187500.02, 0.00, 0.00, 0.00
85, -187500.02, -187500.02, -3144.89, -187500.02, -187500.02, -187500.02, -187500.02, -187500.02, 0.00, 0.00, 0.00
86, -187500.02, -187500.02, -3130.85, -187500.02, -187500.02, -187500.02, -187500.02, -187500.02, 0.00, 0.00, 0.00
87, -187500.02, -187500.02, -3146.66, -187500.02, -187500.02, -187500.02, -187500.02, -187500.02, 0.00, 0.00, 0.00
88, -187500.02, -187500.02, -3166.15, -187500.02, -187500.02, -187500.02, -187500.02, -187500.02, 0.00, 0.00, 0.00
89, -187500.02, -187500.02, -3150.99, -187500.02, -187500.02, -187500.02, -187500.02, -187500.02, 0.00, 0.00, 0.00
90, -187500.02, -187500.02, -3137.56, -187500.02, -187500.02, -187500.02, -187500.02, -187500.02, 0.00, 0.00, 0.00
91, -187500.02, -187500.02, -3161.18, -187500.02, -187500.02, -187500.02, -187500.02, -187500.02, 0.00, 0.00, 0.00
92, -187500.02, -187500.02, -3185.64, -187500.02, -187500.02, -187500.02, -187500.02, -187500.02, -0.02, 0.02, 1.02
93, -187500.02, -187500.02, -3184.94, -187500.02, -187500.02, -187500.02, -187500.02, -187500.02, 0.00, 0.00, 0.00
94, -187500.02, -187500.02, -3123.39, -187500.02, -187500.02, -187500.02, -187500.02, -187500.02, 0.00, 0.00, 0.00
95, -187500.02, -187500.02, -3115.63, -187500.02, -187500.02, -187500.02, -187500.02, -187500.02, 0.00, 0.00, 0.00
96, -187500.02, -187500.02, -3164.92, -187500.02, -187500.02, -187500.02, -187500.02, -187500.02, 0.00, 0.00, 0.00
97, -187500.02, -187500.02, -3135.97, -187500.02, -187500.02, -187500.02, -187500.02, -187500.02, 0.00, 0.00, 0.00
98, -187500.02, -187500.02, -3123.59, -187500.02, -187500.02, -187500.02, -187500.02, -187500.02, 0.00, 0.00, 0.00
99, -187500.02, -187500.02, -3135.06, -187500.02, -187500.02, -187500.02, -187500.02, -187500.02, 0.00, 0.00, 0.00
100, -187500.02, -187500.02, -3149.74, -187500.02, -187500.02, -187500.02, -187500.02, -187500.02, 0.00, 0.00, 0.00
101, -187500.02, -187500.02, -3160.60, -187500.02, -187500.02, -187500.02, -187500.02, -187500.02, 0.00, 0.00, 0.00
102, -187500.02, -187500.02, -3148.02, -187500.02, -187500.02, -187500.02, -187500.02, -187500.02, -0.02, 0.01, 1.02
103, -187500.02, -187500.02, -3129.91, -187500.02, -187500.02, -187500.02, -187500.02, -187500.02, 0.00, 0.00, 0.00
104, -187500.02, -187500.02, -3147.66, -187500.02, -187500.02, -187500.02, -187500.02, -187500.02, 0.00, 0.00, 0.00
105, -187500.02, -187500.02, -3164.65, -187500.02, -187500.02, -187500.02, -187500.02, -187500.02, 0.00, 0.00, 0.00
106, -187500.02, -187500.02, -3144.60, -187500.02, -187500.02, -187500.02, -187500.02, -187500.02, 0.00, 0.00, 0.00
107, -187500.02, -187500.02, -3139.01, -187500.02, -187500.02, -187500.02, -187500.02, -187500.02, 0.00, 0.00, 0.00
108, -187500.02, -187500.02, -3150.79, -187500.02, -187500.02, -187500.02, -187500.02, -187500.02, 0.00, 0.00, 0.00
109, -187500.02, -187500.02, -3160.67, -187500.02, -187500.02, -187500.02, -187500.02, -187500.02, 0.00, 0.00, 0.00
110, -187500.02, -187500.02, -3144.42, -187500.02, -187500.02, -187500.02, -187500.02, -187500.02, 0.00, 0.00, 0.00
111, -187500.02, -187500.02, -3129.18, -187500.02, -187500.02, -187500.02, -187500.02, -187500.02, 0.00, 0.00, 0.00
112, -187500.02, -187500.02, -3144.89, -187500.02, -187500.02, -187500.02, -187500.02, -187500.02, -0.03, 0.01, 1.02
113, -187500.02, -187500.02, -3160.72, -187500.02, -187500.02, -187500.02, -187500.02, -187500.02, 0.00, 0.00, 0.00
114, -187500.02, -187500.02, -3148.80, -187500.02, -187500.02, -187500.02, -187500.02, -187500.02, 0.00, 0.00, 0.00
115, -187500.02, -187500.02, -3132.84, -187500.02, -187500.02, -187500.02, -187500.02, -187500.02, 0.00, 0.00, 0.00
116, -187500.02, -187500.02, -3141.72, -187500.02, -187500.02, -187500.02, -187500.02, -187500.02, 0.00, 0.00, 0.00
117, -187500.02, -187500.02, -3152.85, -187500.02, -187500.02, -187500.02, -187500.02, -187500.02, 0.00, 0.00, 0.00
118, -187500.02, -187500.02, -3147.89, -187500.02, -187500.02, -187500.02, -187500.02, -187500.02, 0.00, 0.00, 0.00
119, -187500.02, -187500.02, -3134.09, -187500.02, -187500.02, -187500.02, -187500.02, -187500.02, 0.00, 0.00, 0.00
120, -187500.02, -187500.02, -3135.19, -187500.02, -187500.02, -187500.02, -187500.02, -187500.02, 0.00, 0.00, 0.00
121, -187500.02, -187500.02, -3146.83, -187500.02, -187500.02, -187500.02, -187500.02, -187500.02, 0.00, 0.00, 0.00
122, -187500.02, -187500.02, -3154.64, -187500.02, -187500.02, -187500.02, -187500.02, -187500.02, 0.00, 0.00, 0.00
123, -187500.02, -187500.02, -3132.22, -187500.02, -187500.02, -187500.02, -187500.02, -187500.02, -0.02, 0.01, 1.02
124, -187500.02, -187500.02, -3139.95, -187500.02, -187500.02, -187500.02, -187500.02, -187500.02, 0.00, 0.00, 0.00
125, -187500.02, -187500.02, -3146.95, -187500.02, -187500.02, -187500.02, -187500.02, -187500.02, 0.00, 0.00, 0.00
126, -187500.02, -187500.02, -3158.57, -187500.02, -187500.02, -187500.02, -187500.02, -187500.02, 0.00, 0.00, 0.00
127, -187500.02, -187500.02, -3145.09, -187500.02, -187500.02, -187500.02, -187500.02, -187500.02, 0.00, 0.00, 0.00
128, -187500.02, -187500.02, -3131.17, -187500.02, -187500.02, -187500.02, -187500.02, -187500.02, 0.00, 0.00, 0.00
129, -187500.02, -187500.02, -3136.87, -187500.02, -187500.02, -187500.02, -187500.02, -187500.02, 0.00, 0.00, 0.00
130, -187500.02, -187500.02, -3150.17, -187500.02, -187500.02, -187500.02, -187500.02, -187500.02, 0.00, 0.00, 0.00
131, -187500.02, -187500.02, -3135.86, -187500.02, -187500.02, -187500.02, -187500.02, -187500.02, 0.00, 0.00, 0.00
132, -187500.02, -187500.02, -3136.26, -187500.02, -187500.02, -187500.02, -187500.02, -187500.02, 0.00, 0.00, 0.00
133, -187500.02, -187500.02, -3145.47, -187500.02, -187500.02, -187500.02, -187500.02, -187500.02, -0.02, 0.01, 1.03
134, -187500.02, -187500.02, -3152.74, -187500.02, -187500.02, -187500.02, -187500.02, -187500.02, 0.00, 0.00, 0.00
135, -187500.02, -187500.02, -3151.82, -187500.02, -187500.02, -187500.02, -187500.02, -187500.02, 0.00, 0.00, 0.00
136, -187500.02, -187500.02, -3159.69, -187500.02, -187500.02, -187500.02, -187500.02, -187500.02, 0.00, 0.00, 0.00
137, -187500.02, -187500.02, -3136.91, -187500.02, -187500.02, -187500.02, -187500.02, -187500.02, 0.00, 0.00, 0.00
138, -187500.02, -187500.02, -3122.54, -187500.02, -187500.02, -187500.02, -187500.02, -187500.02, 0.00, 0.00, 0.00
139, -187500.02, -187500.02, -3146.90, -187500.02, -187500.02, -187500.02, -187500.02, -187500.02, 0.00, 0.00, 0.00
140, -187500.02, -187500.02, -3127.66, -187500.02, -187500.02, -187500.02, -187500.02, -187500.02, 0.00, 0.00, 0.00
141, -187500.02, -187500.02, -3132.86, -187500.02, -187500.02, -187500.02, -187500.02, -187500.02, 0.00, 0.00, 0.00
142, -187500.02, -187500.02, -3141.90, -187500.02, -187500.02, -187500.02, -187500.02, -187500.02, 0.00, 0.00, 0.00
143, -187500.02, -187500.02, -3143.12, -187500.02, -187500.02, -187500.02, -187500.02, -187500.02, -0.02, 0.01, 1.03
144, -187500.02, -187500.02, -3133.27, -187500.02, -187500.02, -187500.02, -187500.02, -187500.02, 0.00, 0.00, 0.00
145, -187500.02, -187500.02, -3132.13, -187500.02, -187500.02, -187500.02, -187500.02, -187500.02, 0.00, 0.00, 0.00
146, -187500.02, -187500.02, -3142.63, -187500.02, -187500.02, -187500.02, -187500.02, -187500.02, 0.00, 0.00, 0.00
147, -187500.02, -187500.02, -3138.10, -187500.02, -187500.02, -187500.02, -187500.02, -187500.02, 0.00, 0.00, 0.00
148, -187500.02, -187500.02, -3122.61, -187500.02, -187500.02, -187500.02, -187500.02, -187500.02, 0.00, 0.00, 0.00
149, -187500.02, -187500.02, -3125.35, -187500.02, -187500.02, -187500.02, -187500.02, -187500.02, 0.00, 0.00, 0.00
150, -187500.02, -187500.02, -3146.34, -187500.02, -187500.02, -187500.02, -187500.02, -187500.02, 0.00, 0.00, 0.00
151, -187500.02, -187500.02, -3158.50, -187500.02, -187500.02, -187500.02, -187500.02, -187500.02, 0.00, 0.00, 0.00
152, -187500.02, -187500.02, -3146.25, -187500.02, -187500.02, -187500.02, -187500.02, -187500.02, 0.00, 0.00, 0.00
153, -187500.02, -187500.02, -3131.84, -187500.02, -187500.02, -187500.02, -187500.02, -187500.02, -0.02, 0.01, 1.03
154, -187500.02, -187500.02, -3128.66, -187500.02, -187500.02, -187500.02, -187500.02, -187500.02, 0.00, 0.00, 0.00
155, -187500.02, -187500.02, -3149.25, -187500.02, -187500.02, -187500.02, -187500.02, -187500.02, 0.00, 0.00, 0.00
156, -187500.02, -187500.02, -3130.76, -187500.02, -187500.02, -187500.02, -187500.02, -187500.02, 0.00, 0.00, 0.00
157, -187500.02, -187500.02, -3123.88, -187500.02, -187500.02, -187500.02, -187500.02, -187500.02, 0.00, 0.00, 0.00
158, -187500.02, -187500.02, -3139.48, -187500.02, -187500.02, -187500.02, -187500.02, -187500.02, 0.00, 0.00, 0.00
159, -187500.02, -187500.02, -3151.73, -187500.02, -187500.02, -187500.02, -187500.02, -187500.02, 0.00, 0.00, 0.00
160, -187500.02, -187500.02, -3137.89, -187500.02, -187500.02, -187500.02, -187500.02, -187500.02, 0.00, 0.00, 0.00
161, -187500.02, -187500.02, -3127.14, -187500.02, -187500.02, -187500.02, -187500.02, -187500.02, 0.00, 0.00, 0.00
162, -187500.02, -187500.02, -3139.79, -187500.02, -187500.02, -187500.02, -187500.02, -187500.02, 0.00, 0.00, 0.00
163, -187500.02, -187500.02, -3158.01, -187500.02, -187500.02, -187500.02, -187500.02, -187500.02, -0.02, 0.01, 1.03
164, -187500.02, -187500.02, -3146.59, -187500.02, -187500.02, -187500.02, -187500.02, -187500.02, 0.00, 0.00, 0.00
165, -187500.02, -187500.02, -3133.20, -187500.02, -187500.02, -187500.02, -187500.02, -187500.02, 0.00, 0.00, 0.00
166, -187500.02, -187500.02, -3136.42, -187500.02, -187500.02, -187500.02, -187500.02, -187500.02, 0.00, 0.00, 0.00
167, -187500.02, -187500.02, -3145.70, -187500.02, -187500.02, -187500.02, -187500.02, -187500.02, 0.00, 0.00, 0.00
168, -187500.02, -187500.02, -3151.24, -187500.02, -187500.02, -187500.02, -187500.02, -187500.02, 0.00, 0.00, 0.00
169, -187500.02, -187500.02, -3130.92, -187500.02, -187500.02, -187500.02, -187500.02, -187500.02, 0.00, 0.00, 0.00
170, -187500.02, -187500.02, -3136.93, -187500.02, -187500.02, -187500.02, -187500.02, -187500.02, 0.00, 0.00, 0.00
171, -187500.02, -187500.02, -3150.79, -187500.02, -187500.02, -187500.02, -187500.02, -187500.02, 0.00, 0.00, 0.00
172, -187500.02, -187500.02, -3153.50, -187500.02, -187500.02, -187500.02, -187500.02, -187500.02, 0.00, 0.00, 0.00
173, -187500.02, -187500.02, -3134.09, -187500.02, -187500.02, -187500.02, -187500.02, -187500.02, -0.02, 0.01, 1.02
174, -187500.02, -187500.02, -3135.48, -187500.02, -187500.02, -187500.02, -187500.02, -187500.02, 0.00, 0.00, 0.00
175, -187500.02, -187500.02, -3142.19, -187500.02, -187500.02, -187500.02, -187500.02, -187500.02, 0.00, 0.00, 0.00
176, -187500.02, -187500.02, -3150.75, -187500.02, -187500.02, -187500.02, -187500.02, -187500.02, 0.00, 0.00, 0.00
177, -187500.02, -187500.02, -3136.24, -187500.02, -187500.02, -187500.02, -187500.02, -187500.02, 0.00, 0.00, 0.00
178, -187500.02, -187500.02, -3137.49, -187500.02, -187500.02, -187500.02, -187500.02, -187500.02, 0.00, 0.00, 0.00
179, -187500.02, -187500.02, -3146.95, -187500.02, -187500.02, -187500.02, -187500.02, -187500.02, 0.00, 0.00, 0.00
180, -187500.02, -187500.02, -3141.69, -187500.02, -187500.02, -187500.02, -187500.02, -187500.02, 0.00, 0.00, 0.00
181, -187500.02, -187500.02, -3119.10, -187500.02, -187500.02, -187500.02, -187500.02, -187500.02, 0.00, 0.00, 0.00
182, -187500.02, -187500.02, -3120.93, -187500.02, -187500.02, -187500.02, -187500.02, -187500.02, 0.00, 0.00, 0.00
183, -187500.02, -187500.02, -3132.04, -187500.02, -187500.02, -187500.02, -187500.02, -187500.02, 0.00, 0.00, 0.00
184, -187500.02, -187500.02, -3140.11, -187500.02, -187500.02, -187500.02, -187500.02, -187500.02, -0.01, 0.02, 1.02
185, -187500.02, -187500.02, -3133.04, -187500.02, -187500.02, -187500.02, -187500.02, -187500.02, 0.00, 0.00, 0.00
186, -187500.02, -187500.02, -3118.43, -187500.02, -187500.02, -187500.02, -187500.02, -187500.02, 0.00, 0.00, 0.00
187, -187500.02, -187500.02, -3131.41, -187500.02, -187500.02, -187500.02, -187500.02, -187500.02, 0.00, 0.00, 0.00
188, -187500.02, -187500.02, -3144.02, -187500.02, -187500.02, -187500.02, -187500.02, -187500.02, 0.00, 0.00, 0.00
189, -187500.02, -187500.02, -3143.86, -187500.02, -187500.02, -187500.02, -187500.02, -187500.02, 0.00, 0.00, 0.00
190, -187500.02, -187500.02, -3130.56, -187500.02, -187500.02, -187500.02, -187500.02, -187500.02, 0.00, 0.00, 0.00
191, -187500.02, -187500.02, -3136.55, -187500.02, -187500.02, -187500.02, -187500.02, -187500.02, 0.00, 0.00, 0.00
192, -187500.02, -187500.02, -3154.10, -187500.02, -187500.02, -187500.02, -187500.02, -187500.02, 0.00, 0.00, 0.00
193, -187500.02, -187500.02, -3155.44, -187500.02, -187500.02, -187500.02, -187500.02, -187500.02, 0.00, 0.00, 0.00
194, -187500.02, -187500.02, -3121.78, -187500.02, -187500.02, -187500.02, -187500.02, -187500.02, -0.01, 0.01, 1.03
195, -187500.02, -187500.02, -3127.99, -187500.02, -187500.02, -187500.02, -187500.02, -187500.02, 0.00, 0.00, 0.00
196, -187500.02, -187500.02, -3143.88, -187500.02, -187500.02, -187500.02, -187500.02, -187500.02, 0.00, 0.00, 0.00
197, -187500.02, -187500.02, -3166.46, -187500.02, -187500.02, -187500.02, -187500.02, -187500.02, 0.00, 0.00, 0.00
198, -187500.02, -187500.02, -3158.79, -187500.02, -187500.02, -187500.02, -187500.02, -187500.02, 0.00, 0.00, 0.00
199, -187500.02, -187500.02, -3123.21, -187500.02, -187500.02, -187500.02, -187500.02, -187500.02, 0.00, 0.00, 0.00
200, -187500.02, -187500.02, -3107.65, -187500.02, -187500.02, -187500.02, -187500.02, -187500.02, 0.00, 0.00, 0.00
201, -187500.02, -187500.02, -3148.89, -187500.02, -187500.02, -187500.02, -187500.02, -187500.02, 0.00, 0.00, 0.00
202, -187500.02, -187500.02, -3136.26, -187500.02, -187500.02, -187500.02, -187500.02, -187500.02, 0.00, 0.00, 0.00
203, -187500.02, -187500.02, -3126.99, -187500.02, -187500.02, -187500.02, -187500.02, -187500.02, 0.00, 0.00, 0.00
204, -187500.02, -187500.02, -3140.40, -187500.02, -187500.02, -187500.02, -187500.02, -187500.02, -0.02, 0.01, 1.03
205, -187500.02, -187500.02, -3152.96, -187500.02, -187500.02, -187500.02, -187500.02, -187500.02, 0.00, 0.00, 0.00
206, -187500.02, -187500.02, -3140.98, -187500.02, -187500.02, -187500.02, -187500.02, -187500.02, 0.00, 0.00, 0.00
207, -187500.02, -187500.02, -3127.70, -187500.02, -187500.02, -187500.02, -187500.02, -187500.02, 0.00, 0.00, 0.00
208, -187500.02, -187500.02, -3144.18, -187500.02, -187500.02, -187500.02, -187500.02, -187500.02, 0.00, 0.00, 0.00
209, -187500.02, -187500.02, -3151.51, -187500.02, -187500.02, -187500.02, -187500.02, -187500.02, 0.00, 0.00, 0.00
210, -187500.02, -187500.02, -3132.93, -187500.02, -187500.02, -187500.02, -187500.02, -187500.02, 0.00, 0.00, 0.00
211, -187500.02, -187500.02, -3124.86, -187500.02, -187500.02, -187500.02, -187500.02, -187500.02, 0.00, 0.00, 0.00
212, -187500.02, -187500.02, -3138.10, -187500.02, -187500.02, -187500.02, -187500.02, -187500.02, 0.00, 0.00, 0.00
213, -187500.02, -187500.02, -3154.37, -187500.02, -187500.02, -187500.02, -187500.02, -187500.02, 0.00, 0.00, 0.00
214, -187500.02, -187500.02, -3143.26, -187500.02, -187500.02, -187500.02, -187500.02, -187500.02, -0.02, 0.01, 1.03
215, -187500.02, -187500.02, -3116.55, -187500.02, -187500.02, -187500.02, -187500.02, -187500.02, 0.00, 0.00, 0.00
216, -187500.02, -187500.02, -3125.35, -187500.02, -187500.02, -187500.02, -187500.02, -187500.02, 0.00, 0.00, 0.00
217, -187500.02, -187500.02, -3139.91, -187500.02, -187500.02, -187500.02, -187500.02, -187500.02, 0.00, 0.00, 0.00
218, -187500.02, -187500.02, -3147.71, -187500.02, -187500.02, -187500.02, -187500.02, -187500.02, 0.00, 0.00, 0.00
219, -187500.02, -187500.02, -3135.44, -187500.02, -187500.02, -187500.02, -187500.02, -187500.02, 0.00, 0.00, 0.00
220, -187500.02, -187500.02, -3133.65, -187500.02, -187500.02, -187500.02, -187500.02, -187500.02, 0.00, 0.00, 0.00
221, -187500.02, -187500.02, -3137.20, -187500.02, -187500.02, -187500.02, -187500.02, -187500.02, 0.00, 0.00, 0.00
222, -187500.02, -187500.02, -3136.44, -187500.02, -187500.02, -187500.02, -187500.02, -187500.02, 0.00, 0.00, 0.00
223, -187500.02, -187500.02, -3129.51, -187500.02, -187500.02, -187500.02, -187500.02, -187500.02, 0.00, 0.00, 0.00
224, -187500.02, -187500.02, -3130.00, -187500.02, -187500.02, -187500.02, -187500.02, -187500.02, -0.02, 0.01, 1.03
225, -187500.02, -187500.02, -3153.59, -187500.02, -187500.02, -187500.02, -187500.02, -187500.02, 0.00, 0.00, 0.00
226, -187500.02, -187500.02, -3169.05, -187500.02, -187500.02, -187500.02, -187500.02, -187500.02, 0.00, 0.00, 0.00
227, -187500.02, -187500.02, -3158.35, -187500.02, -187500.02, -187500.02, -187500.02, -187500.02, 0.00, 0.00, 0.00
228, -187500.02, -187500.02, -3096.99, -187500.02, -187500.02, -187500.02, -187500.02, -187500.02, 0.00, 0.00, 0.00
229, -187500.02, -187500.02, -3116.32, -187500.02, -187500.02, -187500.02, -187500.02, -187500.02, 0.00, 0.00, 0.00
230, -187500.02, -187500.02, -3142.21, -187500.02, -187500.02, -187500.02, -187500.02, -187500.02, 0.00, 0.00, 0.00
231, -187500.02, -187500.02, -3135.59, -187500.02, -187500.02, -187500.02, -187500.02, -187500.02, 0.00, 0.00, 0.00
232, -187500.02, -187500.02, -3130.38, -187500.02, -187500.02, -187500.02, -187500.02, -187500.02, 0.00, 0.00, 0.00
233, -187500.02, -187500.02, -3145.27, -187500.02, -187500.02, -187500.02, -187500.02, -187500.02, 0.00, 0.00, 0.00
234, -187500.02, -187500.02, -3148.85, -187500.02, -187500.02, -187500.02, -187500.02, -187500.02, -0.01, 0.01, 1.03
235, -187500.02, -187500.02, -3123.90, -187500.02, -187500.02, -187500.02, -187500.02, -187500.02, 0.00, 0.00, 0.00
236, -187500.02, -187500.02, -3118.67, -187500.02, -187500.02, -187500.02, -187500.02, -187500.02, 0.00, 0.00, 0.00
237, -187500.02, -187500.02, -3128.66, -187500.02, -187500.02, -187500.02, -187500.02, -187500.02, 0.00, 0.00, 0.00
238, -187500.02, -187500.02, -3141.38, -187500.02, -187500.02, -187500.02, -187500.02, -187500.02, 0.00, 0.00, 0.00
239, -187500.02, -187500.02, -3135.70, -187500.02, -187500.02, -187500.02, -187500.02, -187500.02, 0.00, 0.00, 0.00
240, -187500.02, -187500.02, -3115.36, -187500.02, -187500.02, -187500.02, -187500.02, -187500.02, 0.00, 0.00, 0.00
241, -187500.02, -187500.02, -3127.03, -187500.02, -187500.02, -187500.02, -187500.02, -187500.02, 0.00, 0.00, 0.00
242, -187500.02, -187500.02, -3154.39, -187500.02, -187500.02, -187500.02, -187500.02, -187500.02, 0.00, 0.00, 0.00
243, -187500.02, -187500.02, -3152.20, -187500.02, -187500.02, -187500.02, -187500.02, -187500.02, 0.00, 0.00, 0.00
244, -187500.02, -187500.02, -3107.05, -187500.02, -187500.02, -187500.02, -187500.02, -187500.02, 0.00, 0.00, 0.00
245, -187500.02, -187500.02, -3108.48, -187500.02, -187500.02, -187500.02, -187500.02, -187500.02, -0.02, 0.01, 1.03
246, -187500.02, -187500.02, -3125.78, -187500.02, -187500.02, -187500.02, -187500.02, -187500.02, 0.00, 0.00, 0.00
247, -187500.02, -187500.02, -3164.74, -187500.02, -187500.02, -187500.02, -187500.02, -187500.02, 0.00, 0.00, 0.00
248, -187500.02, -187500.02, -3146.03, -187500.02, -187500.02, -187500.02, -187500.02, -187500.02, 0.00, 0.00, 0.00
249, -187500.02, -187500.02, -3094.98, -187500.02, -187500.02, -187500.02, -187500.02, -187500.02, 0.00, 0.00, 0.00
250, -187500.02, -187500.02, -3120.01, -187500.02, -187500.02, -187500.02, -187500.02, -187500.02, 0.00, 0.00, 0.00
251, -187500.02, -187500.02, -3136.60, -187500.02, -187500.02, -187500.02, -187500.02, -187500.02, 0.00, 0.00, 0.00
252, -187500.02, -187500.02, -3146.39, -187500.02, -187500.02, -187500.02, -187500.02, -187500.02, 0.00, 0.00, 0.00
253, -187500.02, -187500.02, -3189.21, -187500.02, -187500.02, -187500.02, -187500.02, -187500.02, 0.00, 0.00, 0.00
254, -187500.02, -187500.02, -3167.09, -187500.02, -187500.02, -187500.02, -187500.02, -187500.02, 0.00, 0.00, 0.00
255, -187500.02, -187500.02, -3107.54, -187500.02, -187500.02, -187500.02, -187500.02, -187500.02, -0.01, 0.01, 1.03
0, -187500.02, -187500.02, -3092.41, -187500.02, -187500.02, -187500.02, -187500.02, -187500.02, 0.00, 0.00, 0.00
1, -187500.02, -187500.02, -3095.16, -187500.02, -187500.02, -187500.02, -187500.02, -187500.02, 0.00, 0.00, 0.00
2, -187500.02, -187500.02, -3107.45, -187500.02, -187500.02, -187500.02, -187500.02, -187500.02, 0.00, 0.00, 0.00
3, -187500.02, -187500.02, -3130.21, -187500.02, -187500.02, -187500.02, -187500.02, -187500.02, 0.00, 0.00, 0.00
4, -187500.02, -187500.02, -3130.79, -187500.02, -187500.02, -187500.02, -187500.02, -187500.02, 0.00, 0.00, 0.00
5, -187500.02, -187500.02, -3113.51, -187500.02, -187500.02, -187500.02, -187500.02, -187500.02, 0.00, 0.00, 0.00
6, -187500.02, -187500.02, -3123.12, -187500.02, -187500.02, -187500.02, -187500.02, -187500.02, 0.00, 0.00, 0.00
7, -187500.02, -187500.02, -3133.40, -187500.02, -187500.02, -187500.02, -187500.02, -187500.02, 0.00, 0.00, 0.00
8, -187500.02, -187500.02, -3133.18, -187500.02, -187500.02, -187500.02, -187500.02, -187500.02, 0.00, 0.00, 0.00
9, -187500.02, -187500.02, -3121.13, -187500.02, -187500.02, -187500.02, -187500.02, -187500.02, -0.02, 0.02, 1.03
10, -187500.02, -187500.02, -3133.45, -187500.02, -187500.02, -187500.02, -187500.02, -187500.02, 0.00, 0.00, 0.00
11, -187500.02, -187500.02, -3153.72, -187500.02, -187500.02, -187500.02, -187500.02, -187500.02, 0.00, 0.00, 0.00
