%OpenBCI Raw EEG Data
%
%Sample Rate = 250.0 Hz
%First Column = SampleIndex
%Other Columns = EEG data in microvolts followed by Accel Data (in G) interleaved with Aux Data
0, 187500.00, 187500.00, -29684.48, 187500.00, -187500.02, 187500.00, -187500.02, -187500.02, 0.00, 0.51, -0.51
1, 187500.00, 187500.00, -29681.13, 187500.00, -187500.02, 187500.00, -187500.02, -187500.02, 0.00, 0.00, 0.00
2, 187500.00, 187500.00, -29608.66, 187500.00, -187500.02, 187500.00, -187500.02, -187500.02, 0.00, 0.00, 0.00
3, 187500.00, 187500.00, -29563.20, 187500.00, -187500.02, 187500.00, -187500.02, -187500.02, 0.00, 0.00, 0.00
4, 187500.00, 187500.00, -29647.31, 187500.00, -187500.02, 187500.00, -187500.02, -187500.02, 0.00, 0.00, 0.00
5, 187500.00, 187500.00, -29669.35, 187500.00, -187500.02, 187500.00, -187500.02, -187500.02, 0.00, 0.00, 0.00
6, 187500.00, 187500.00, -29597.15, 187500.00, -187500.02, 187500.00, -187500.02, -187500.02, 0.00, 0.00, 0.00
7, 187500.00, 187500.00, -29557.59, 187500.00, -187500.02, 187500.00, -187500.02, -187500.02, 0.00, 0.51, -0.51
8, 187500.00, 187500.00, -29657.95, 187500.00, -187500.02, 187500.00, -187500.02, -187500.02, 0.00, 0.00, 0.00
9, 187500.00, 187500.00, -29688.86, 187500.00, -187500.02, 187500.00, -187500.02, -187500.02, 0.00, 0.00, 0.00
10, 187500.00, 187500.00, -29616.71, 187500.00, -187500.02, 187500.00, -187500.02, -187500.02, 0.00, 0.00, 0.00
11, 187500.00, 187500.00, -29548.11, 187500.00, -187500.02, 187500.00, -187500.02, -187500.02, 0.00, 0.00, 0.00
12, 187500.00, 187500.00, -29613.87, 187500.00, -187500.02, 187500.00, -187500.02, -187500.02, 0.00, 0.00, 0.00
13, 187500.00, 187500.00, -29685.37, 187500.00, -187500.02, 187500.00, -187500.02, -187500.02, 0.00, 0.00, 0.00
14, 187500.00, 187500.00, -29622.74, 187500.00, -187500.02, 187500.00, -187500.02, -187500.02, 0.00, 0.00, 0.00
15, 187500.00, 187500.00, -29567.58, 187500.00, -187500.02, 187500.00, -187500.02, -187500.02, 0.00, 0.00, 0.00
16, 187500.00, 187500.00, -29634.57, 187500.00, -187500.02, 187500.00, -187500.02, -187500.02, 0.00, 0.00, 0.00
17, 187500.00, 187500.00, -29705.18, 187500.00, -187500.02, 187500.00, -187500.02, -187500.02, 0.00, 0.51, -0.51
18, 187500.00, 187500.00, -29637.83, 187500.00, -187500.02, 187500.00, -187500.02, -187500.02, 0.00, 0.00, 0.00
19, 187500.00, 187500.00, -29539.77, 187500.00, -187500.02, 187500.00, -187500.02, -187500.02, 0.00, 0.00, 0.00
20, 187500.00, 187500.00, -29545.85, 187500.00, -187500.02, 187500.00, -187500.02, -187500.02, 0.00, 0.00, 0.00
21, 187500.00, 187500.00, -29673.28, 187500.00, -187500.02, 187500.00, -187500.02, -187500.02, 0.00, 0.00, 0.00
22, 187500.00, 187500.00, -29642.01, 187500.00, -187500.02, 187500.00, -187500.02, -187500.02, 0.00, 0.00, 0.00
23, 187500.00, 187500.00, -29560.58, 187500.00, -187500.02, 187500.00, -187500.02, -187500.02, 0.00, 0.00, 0.00
24, 187500.00, 187500.00, -29549.03, 187500.00, -187500.02, 187500.00, -187500.02, -187500.02, 0.00, 0.00, 0.00
25, 187500.00, 187500.00, -29671.87, 187500.00, -187500.02, 187500.00, -187500.02, -187500.02, 0.00, 0.00, 0.00
26, 187500.00, 187500.00, -29673.59, 187500.00, -187500.02, 187500.00, -187500.02, -187500.02, 0.00, 0.00, 0.00
27, 187500.00, 187500.00, -29579.07, 187500.00, -187500.02, 187500.00, -187500.02, -187500.02, 0.00, 0.51, -0.51
28, 187500.00, 187500.00, -29531.28, 187500.00, -187500.02, 187500.00, -187500.02, -187500.02, 0.00, 0.00, 0.00
29, 187500.00, 187500.00, -29633.70, 187500.00, -187500.02, 187500.00, -187500.02, -187500.02, 0.00, 0.00, 0.00
30, 187500.00, 187500.00, -29658.80, 187500.00, -187500.02, 187500.00, -187500.02, -187500.02, 0.00, 0.00, 0.00
31, 187500.00, 187500.00, -29597.80, 187500.00, -187500.02, 187500.00, -187500.02, -187500.02, 0.00, 0.00, 0.00
32, 187500.00, 187500.00, -29540.00, 187500.00, -187500.02, 187500.00, -187500.02, -187500.02, 0.00, 0.00, 0.00
33, 187500.00, 187500.00, -29609.71, 187500.00, -187500.02, 187500.00, -187500.02, -187500.02, 0.00, 0.00, 0.00
34, 187500.00, 187500.00, -29656.49, 187500.00, -187500.02, 187500.00, -187500.02, -187500.02, 0.00, 0.00, 0.00
35, 187500.00, 187500.00, -29590.56, 187500.00, -187500.02, 187500.00, -187500.02, -187500.02, 0.00, 0.00, 0.00
36, 187500.00, 187500.00, -29531.15, 187500.00, -187500.02, 187500.00, -187500.02, -187500.02, 0.00, 0.00, 0.00
37, 187500.00, 187500.00, -29596.99, 187500.00, -187500.02, 187500.00, -187500.02, -187500.02, 0.00, 0.51, -0.51
38, 187500.00, 187500.00, -29664.94, 187500.00, -187500.02, 187500.00, -187500.02, -187500.02, 0.00, 0.00, 0.00
39, 187500.00, 187500.00, -29610.41, 187500.00, -187500.02, 187500.00, -187500.02, -187500.02, 0.00, 0.00, 0.00
40, 187500.00, 187500.00, -29528.08, 187500.00, -187500.02, 187500.00, -187500.02, -187500.02, 0.00, 0.00, 0.00
41, 187500.00, 187500.00, -29570.31, 187500.00, -187500.02, 187500.00, -187500.02, -187500.02, 0.00, 0.00, 0.00
42, 187500.00, 187500.00, -29676.43, 187500.00, -187500.02, 187500.00, -187500.02, -187500.02, 0.00, 0.00, 0.00
43, 187500.00, 187500.00, -29620.91, 187500.00, -187500.02, 187500.00, -187500.02, -187500.02, 0.00, 0.00, 0.00
44, 187500.00, 187500.00, -29539.28, 187500.00, -187500.02, 187500.00, -187500.02, -187500.02, 0.00, 0.00, 0.00
45, 187500.00, 187500.00, -29552.18, 187500.00, -187500.02, 187500.00, -187500.02, -187500.02, 0.00, 0.00, 0.00
46, 187500.00, 187500.00, -29665.10, 187500.00, -187500.02, 187500.00, -187500.02, -187500.02, 0.00, 0.00, 0.00
47, 187500.00, 187500.00, -29641.65, 187500.00, -187500.02, 187500.00, -187500.02, -187500.02, 0.00, 0.51, -0.51
48, 187500.00, 187500.00, -29542.88, 187500.00, -187500.02, 187500.00, -187500.02, -187500.02, 0.00, 0.00, 0.00
49, 187500.00, 187500.00, -29521.02, 187500.00, -187500.02, 187500.00, -187500.02, -187500.02, 0.00, 0.00, 0.00
50, 187500.00, 187500.00, -29649.77, 187500.00, -187500.02, 187500.00, -187500.02, -187500.02, 0.00, 0.00, 0.00
51, 187500.00, 187500.00, -29638.57, 187500.00, -187500.02, 187500.00, -187500.02, -187500.02, 0.00, 0.00, 0.00
52, 187500.00, 187500.00, -29554.19, 187500.00, -187500.02, 187500.00, -187500.02, -187500.02, 0.00, 0.00, 0.00
53, 187500.00, 187500.00, -29517.51, 187500.00, -187500.02, 187500.00, -187500.02, -187500.02, 0.00, 0.00, 0.00
54, 187500.00, 187500.00, -29616.60, 187500.00, -187500.02, 187500.00, -187500.02, -187500.02, 0.00, 0.00, 0.00
55, 187500.00, 187500.00, -29652.76, 187500.00, -187500.02, 187500.00, -187500.02, -187500.02, 0.00, 0.00, 0.00
56, 187500.00, 187500.00, -29575.71, 187500.00, -187500.02, 187500.00, -187500.02, -187500.02, 0.00, 0.00, 0.00
57, 187500.00, 187500.00, -29520.37, 187500.00, -187500.02, 187500.00, -187500.02, -187500.02, 0.00, 0.00, 0.00
58, 187500.00, 187500.00, -29601.00, 187500.00, -187500.02, 187500.00, -187500.02, -187500.02, 0.00, 0.51, -0.51
59, 187500.00, 187500.00, -29660.00, 187500.00, -187500.02, 187500.00, -187500.02, -187500.02, 0.00, 0.00, 0.00
60, 187500.00, 187500.00, -29592.26, 187500.00, -187500.02, 187500.00, -187500.02, -187500.02, 0.00, 0.00, 0.00
61, 187500.00, 187500.00, -29515.84, 187500.00, -187500.02, 187500.00, -187500.02, -187500.02, 0.00, 0.00, 0.00
62, 187500.00, 187500.00, -29575.43, 187500.00, -187500.02, 187500.00, -187500.02, -187500.02, 0.00, 0.00, 0.00
63, 187500.00, 187500.00, -29652.76, 187500.00, -187500.02, 187500.00, -187500.02, -187500.02, 0.00, 0.00, 0.00
64, 187500.00, 187500.00, -29592.90, 187500.00, -187500.02, 187500.00, -187500.02, -187500.02, 0.00, 0.00, 0.00
65, 187500.00, 187500.00, -29526.45, 187500.00, -187500.02, 187500.00, -187500.02, -187500.02, 0.00, 0.00, 0.00
66, 187500.00, 187500.00, -29558.33, 187500.00, -187500.02, 187500.00, -187500.02, -187500.02, 0.00, 0.00, 0.00
67, 187500.00, 187500.00, -29653.14, 187500.00, -187500.02, 187500.00, -187500.02, -187500.02, 0.00, 0.00, 0.00
68, 187500.00, 187500.00, -29611.30, 187500.00, -187500.02, 187500.00, -187500.02, -187500.02, 0.00, 0.51, -0.51
69, 187500.00, 187500.00, -29532.76, 187500.00, -187500.02, 187500.00, -187500.02, -187500.02, 0.00, 0.00, 0.00
70, 187500.00, 187500.00, -29540.78, 187500.00, -187500.02, 187500.00, -187500.02, -187500.02, 0.00, 0.00, 0.00
71, 187500.00, 187500.00, -29653.72, 187500.00, -187500.02, 187500.00, -187500.02, -187500.02, 0.00, 0.00, 0.00
72, 187500.00, 187500.00, -29630.05, 187500.00, -187500.02, 187500.00, -187500.02, -187500.02, 0.00, 0.00, 0.00
73, 187500.00, 187500.00, -29530.54, 187500.00, -187500.02, 187500.00, -187500.02, -187500.02, 0.00, 0.00, 0.00
74, 187500.00, 187500.00, -29504.12, 187500.00, -187500.02, 187500.00, -187500.02, -187500.02, 0.00, 0.00, 0.00
75, 187500.00, 187500.00, -29621.07, 187500.00, -187500.02, 187500.00, -187500.02, -187500.02, 0.00, 0.00, 0.00
76, 187500.00, 187500.00, -29630.34, 187500.00, -187500.02, 187500.00, -187500.02, -187500.02, 0.00, 0.00, 0.00
77, 187500.00, 187500.00, -29544.29, 187500.00, -187500.02, 187500.00, -187500.02, -187500.02, 0.00, 0.00, 0.00
78, 187500.00, 187500.00, -29493.26, 187500.00, -187500.02, 187500.00, -187500.02, -187500.02, 0.00, 0.51, -0.51
79, 187500.00, 187500.00, -29596.90, 187500.00, -187500.02, 187500.00, -187500.02, -187500.02, 0.00, 0.00, 0.00
80, 187500.00, 187500.00, -29645.05, 187500.00, -187500.02, 187500.00, -187500.02, -187500.02, 0.00, 0.00, 0.00
81, 187500.00, 187500.00, -29566.98, 187500.00, -187500.02, 187500.00, -187500.02, -187500.02, 0.00, 0.00, 0.00
82, 187500.00, 187500.00, -29506.71, 187500.00, -187500.02, 187500.00, -187500.02, -187500.02, 0.00, 0.00, 0.00
83, 187500.00, 187500.00, -29585.46, 187500.00, -187500.02, 187500.00, -187500.02, -187500.02, 0.00, 0.00, 0.00
84, 187500.00, 187500.00, -29651.18, 187500.00, -187500.02, 187500.00, -187500.02, -187500.02, 0.00, 0.00, 0.00
85, 187500.00, 187500.00, -29590.38, 187500.00, -187500.02, 187500.00, -187500.02, -187500.02, 0.00, 0.00, 0.00
86, 187500.00, 187500.00, -29504.50, 187500.00, -187500.02, 187500.00, -187500.02, -187500.02, 0.00, 0.00, 0.00
87, 187500.00, 187500.00, -29537.40, 187500.00, -187500.02, 187500.00, -187500.02, -187500.02, 0.00, 0.00, 0.00
88, 187500.00, 187500.00, -29626.59, 187500.00, -187500.02, 187500.00, -187500.02, -187500.02, 0.00, 0.51, -0.51
89, 187500.00, 187500.00, -29574.29, 187500.00, -187500.02, 187500.00, -187500.02, -187500.02, 0.00, 0.00, 0.00
90, 187500.00, 187500.00, -29506.20, 187500.00, -187500.02, 187500.00, -187500.02, -187500.02, 0.00, 0.00, 0.00
91, 187500.00, 187500.00, -29528.91, 187500.00, -187500.02, 187500.00, -187500.02, -187500.02, 0.00, 0.00, 0.00
92, 187500.00, 187500.00, -29640.89, 187500.00, -187500.02, 187500.00, -187500.02, -187500.02, 0.00, 0.00, 0.00
93, 187500.00, 187500.00, -29612.37, 187500.00, -187500.02, 187500.00, -187500.02, -187500.02, 0.00, 0.00, 0.00
94, 187500.00, 187500.00, -29512.10, 187500.00, -187500.02, 187500.00, -187500.02, -187500.02, 0.00, 0.00, 0.00
95, 187500.00, 187500.00, -29505.89, 187500.00, -187500.02, 187500.00, -187500.02, -187500.02, 0.00, 0.00, 0.00
96, 187500.00, 187500.00, -29631.06, 187500.00, -187500.02, 187500.00, -187500.02, -187500.02, 0.00, 0.00, 0.00
97, 187500.00, 187500.00, -29608.77, 187500.00, -187500.02, 187500.00, -187500.02, -187500.02, 0.00, 0.00, 0.00
98, 187500.00, 187500.00, -29522.83, 187500.00, -187500.02, 187500.00, -187500.02, -187500.02, 0.00, 0.51, -0.51
99, 187500.00, 187500.00, -29488.52, 187500.00, -187500.02, 187500.00, -187500.02, -187500.02, 0.00, 0.00, 0.00
100, 187500.00, 187500.00, -29604.39, 187500.00, -187500.02, 187500.00, -187500.02, -187500.02, 0.00, 0.00, 0.00
101, 187500.00, 187500.00, -29618.07, 187500.00, -187500.02, 187500.00, -187500.02, -187500.02, 0.00, 0.00, 0.00
102, 187500.00, 187500.00, -29543.64, 187500.00, -187500.02, 187500.00, -187500.02, -187500.02, 0.00, 0.00, 0.00
103, 187500.00, 187500.00, -29489.39, 187500.00, -187500.02, 187500.00, -187500.02, -187500.02, 0.00, 0.00, 0.00
104, 187500.00, 187500.00, -29566.93, 187500.00, -187500.02, 187500.00, -187500.02, -187500.02, 0.00, 0.00, 0.00
105, 187500.00, 187500.00, -29622.05, 187500.00, -187500.02, 187500.00, -187500.02, -187500.02, 0.00, 0.00, 0.00
106, 187500.00, 187500.00, -29553.90, 187500.00, -187500.02, 187500.00, -187500.02, -187500.02, 0.00, 0.00, 0.00
107, 187500.00, 187500.00, -29486.62, 187500.00, -187500.02, 187500.00, -187500.02, -187500.02, 0.00, 0.00, 0.00
108, 187500.00, 187500.00, -29553.27, 187500.00, -187500.02, 187500.00, -187500.02, -187500.02, 0.00, 0.51, -0.51
109, 187500.00, 187500.00, -29625.98, 187500.00, -187500.02, 187500.00, -187500.02, -187500.02, 0.00, 0.00, 0.00
110, 187500.00, 187500.00, -29561.43, 187500.00, -187500.02, 187500.00, -187500.02, -187500.02, 0.00, 0.00, 0.00
111, 187500.00, 187500.00, -29488.19, 187500.00, -187500.02, 187500.00, -187500.02, -187500.02, 0.00, 0.00, 0.00
112, 187500.00, 187500.00, -29543.62, 187500.00, -187500.02, 187500.00, -187500.02, -187500.02, 0.00, 0.00, 0.00
113, 187500.00, 187500.00, -29643.24, 187500.00, -187500.02, 187500.00, -187500.02, -187500.02, 0.00, 0.00, 0.00
114, 187500.00, 187500.00, -29565.01, 187500.00, -187500.02, 187500.00, -187500.02, -187500.02, 0.00, 0.00, 0.00
115, 187500.00, 187500.00, -29485.35, 187500.00, -187500.02, 187500.00, -187500.02, -187500.02, 0.00, 0.00, 0.00
116, 187500.00, 187500.00, -29498.89, 187500.00, -187500.02, 187500.00, -187500.02, -187500.02, 0.00, 0.00, 0.00
117, 187500.00, 187500.00, -29610.32, 187500.00, -187500.02, 187500.00, -187500.02, -187500.02, 0.00, 0.00, 0.00
118, 187500.00, 187500.00, -29588.30, 187500.00, -187500.02, 187500.00, -187500.02, -187500.02, 0.00, 0.00, 0.00
119, 187500.00, 187500.00, -29502.96, 187500.00, -187500.02, 187500.00, -187500.02, -187500.02, 0.00, 0.51, -0.51
120, 187500.00, 187500.00, -29487.94, 187500.00, -187500.02, 187500.00, -187500.02, -187500.02, 0.00, 0.00, 0.00
121, 187500.00, 187500.00, -29604.24, 187500.00, -187500.02, 187500.00, -187500.02, -187500.02, 0.00, 0.00, 0.00
122, 187500.00, 187500.00, -29603.61, 187500.00, -187500.02, 187500.00, -187500.02, -187500.02, 0.00, 0.00, 0.00
123, 187500.00, 187500.00, -29517.85, 187500.00, -187500.02, 187500.00, -187500.02, -187500.02, 0.00, 0.00, 0.00
124, 187500.00, 187500.00, -29463.87, 187500.00, -187500.02, 187500.00, -187500.02, -187500.02, 0.00, 0.00, 0.00
125, 187500.00, 187500.00, -29566.33, 187500.00, -187500.02, 187500.00, -187500.02, -187500.02, 0.00, 0.00, 0.00
126, 187500.00, 187500.00, -29588.17, 187500.00, -187500.02, 187500.00, -187500.02, -187500.02, 0.00, 0.00, 0.00
127, 187500.00, 187500.00, -29516.62, 187500.00, -187500.02, 187500.00, -187500.02, -187500.02, 0.00, 0.00, 0.00
128, 187500.00, 187500.00, -29467.49, 187500.00, -187500.02, 187500.00, -187500.02, -187500.02, 0.00, 0.00, 0.00
129, 187500.00, 187500.00, -29545.96, 187500.00, -187500.02, 187500.00, -187500.02, -187500.02, 0.00, 0.51, -0.51
130, 187500.00, 187500.00, -29600.84, 187500.00, -187500.02, 187500.00, -187500.02, -187500.02, 0.00, 0.00, 0.00
131, 187500.00, 187500.00, -29534.28, 187500.00, -187500.02, 187500.00, -187500.02, -187500.02, 0.00, 0.00, 0.00
132, 187500.00, 187500.00, -29462.59, 187500.00, -187500.02, 187500.00, -187500.02, -187500.02, 0.00, 0.00, 0.00
133, 187500.00, 187500.00, -29520.69, 187500.00, -187500.02, 187500.00, -187500.02, -187500.02, 0.00, 0.00, 0.00
134, 187500.00, 187500.00, -29599.79, 187500.00, -187500.02, 187500.00, -187500.02, -187500.02, 0.00, 0.00, 0.00
135, 187500.00, 187500.00, -29548.87, 187500.00, -187500.02, 187500.00, -187500.02, -187500.02, 0.00, 0.00, 0.00
136, 187500.00, 187500.00, -29465.52, 187500.00, -187500.02, 187500.00, -187500.02, -187500.02, 0.00, 0.00, 0.00
137, 187500.00, 187500.00, -29489.37, 187500.00, -187500.02, 187500.00, -187500.02, -187500.02, 0.00, 0.00, 0.00
138, 187500.00, 187500.00, -29600.84, 187500.00, -187500.02, 187500.00, -187500.02, -187500.02, 0.00, 0.00, 0.00
139, 187500.00, 187500.00, -29550.95, 187500.00, -187500.02, 187500.00, -187500.02, -187500.02, 0.00, 0.51, -0.51
140, 187500.00, 187500.00, -29478.84, 187500.00, -187500.02, 187500.00, -187500.02, -187500.02, 0.00, 0.00, 0.00
141, 187500.00, 187500.00, -29480.99, 187500.00, -187500.02, 187500.00, -187500.02, -187500.02, 0.00, 0.00, 0.00
142, 187500.00, 187500.00, -29591.83, 187500.00, -187500.02, 187500.00, -187500.02, -187500.02, 0.00, 0.00, 0.00
143, 187500.00, 187500.00, -29570.80, 187500.00, -187500.02, 187500.00, -187500.02, -187500.02, 0.00, 0.00, 0.00
144, 187500.00, 187500.00, -29487.00, 187500.00, -187500.02, 187500.00, -187500.02, -187500.02, 0.00, 0.00, 0.00
145, 187500.00, 187500.00, -29467.82, 187500.00, -187500.02, 187500.00, -187500.02, -187500.02, 0.00, 0.00, 0.00
146, 187500.00, 187500.00, -29575.98, 187500.00, -187500.02, 187500.00, -187500.02, -187500.02, 0.00, 0.00, 0.00
147, 187500.00, 187500.00, -29580.57, 187500.00, -187500.02, 187500.00, -187500.02, -187500.02, 0.00, 0.00, 0.00
148, 187500.00, 187500.00, -29489.04, 187500.00, -187500.02, 187500.00, -187500.02, -187500.02, 0.00, 0.00, 0.00
149, 187500.00, 187500.00, -29440.80, 187500.00, -187500.02, 187500.00, -187500.02, -187500.02, 0.00, 0.51, -0.51
150, 187500.00, 187500.00, -29553.59, 187500.00, -187500.02, 187500.00, -187500.02, -187500.02, 0.00, 0.00, 0.00
151, 187500.00, 187500.00, -29590.71, 187500.00, -187500.02, 187500.00, -187500.02, -187500.02, 0.00, 0.00, 0.00
152, 187500.00, 187500.00, -29510.98, 187500.00, -187500.02, 187500.00, -187500.02, -187500.02, 0.00, 0.00, 0.00
153, 187500.00, 187500.00, -29453.47, 187500.00, -187500.02, 187500.00, -187500.02, -187500.02, 0.00, 0.00, 0.00
154, 187500.00, 187500.00, -29532.38, 187500.00, -187500.02, 187500.00, -187500.02, -187500.02, 0.00, 0.00, 0.00
155, 187500.00, 187500.00, -29592.93, 187500.00, -187500.02, 187500.00, -187500.02, -187500.02, 0.00, 0.00, 0.00
156, 187500.00, 187500.00, -29526.18, 187500.00, -187500.02, 187500.00, -187500.02, -187500.02, 0.00, 0.00, 0.00
157, 187500.00, 187500.00, -29449.54, 187500.00, -187500.02, 187500.00, -187500.02, -187500.02, 0.00, 0.00, 0.00
158, 187500.00, 187500.00, -29500.08, 187500.00, -187500.02, 187500.00, -187500.02, -187500.02, 0.00, 0.00, 0.00
159, 187500.00, 187500.00, -29588.68, 187500.00, -187500.02, 187500.00, -187500.02, -187500.02, 0.00, 0.51, -0.51
160, 187500.00, 187500.00, -29534.54, 187500.00, -187500.02, 187500.00, -187500.02, -187500.02, 0.00, 0.00, 0.00
161, 187500.00, 187500.00, -29460.58, 187500.00, -187500.02, 187500.00, -187500.02, -187500.02, 0.00, 0.00, 0.00
162, 187500.00, 187500.00, -29480.09, 187500.00, -187500.02, 187500.00, -187500.02, -187500.02, 0.00, 0.00, 0.00
163, 187500.00, 187500.00, -29584.90, 187500.00, -187500.02, 187500.00, -187500.02, -187500.02, 0.00, 0.00, 0.00
164, 187500.00, 187500.00, -29551.06, 187500.00, -187500.02, 187500.00, -187500.02, -187500.02, 0.00, 0.00, 0.00
165, 187500.00, 187500.00, -29471.11, 187500.00, -187500.02, 187500.00, -187500.02, -187500.02, 0.00, 0.00, 0.00
166, 187500.00, 187500.00, -29463.09, 187500.00, -187500.02, 187500.00, -187500.02, -187500.02, 0.00, 0.00, 0.00
167, 187500.00, 187500.00, -29572.74, 187500.00, -187500.02, 187500.00, -187500.02, -187500.02, 0.00, 0.00, 0.00
168, 187500.00, 187500.00, -29567.71, 187500.00, -187500.02, 187500.00, -187500.02, -187500.02, 0.00, 0.00, 0.00
169, 187500.00, 187500.00, -29485.73, 187500.00, -187500.02, 187500.00, -187500.02, -187500.02, 0.00, 0.51, -0.51
170, 187500.00, 187500.00, -29430.83, 187500.00, -187500.02, 187500.00, -187500.02, -187500.02, 0.00, 0.00, 0.00
171, 187500.00, 187500.00, -29540.78, 187500.00, -187500.02, 187500.00, -187500.02, -187500.02, 0.00, 0.00, 0.00
172, 187500.00, 187500.00, -29557.97, 187500.00, -187500.02, 187500.00, -187500.02, -187500.02, 0.00, 0.00, 0.00
173, 187500.00, 187500.00, -29477.66, 187500.00, -187500.02, 187500.00, -187500.02, -187500.02, 0.00, 0.00, 0.00
174, 187500.00, 187500.00, -29430.59, 187500.00, -187500.02, 187500.00, -187500.02, -187500.02, 0.00, 0.00, 0.00
175, 187500.00, 187500.00, -29528.53, 187500.00, -187500.02, 187500.00, -187500.02, -187500.02, 0.00, 0.00, 0.00
176, 187500.00, 187500.00, -29566.95, 187500.00, -187500.02, 187500.00, -187500.02, -187500.02, 0.00, 0.00, 0.00
177, 187500.00, 187500.00, -29491.54, 187500.00, -187500.02, 187500.00, -187500.02, -187500.02, 0.00, 0.00, 0.00
178, 187500.00, 187500.00, -29431.14, 187500.00, -187500.02, 187500.00, -187500.02, -187500.02, 0.00, 0.00, 0.00
179, 187500.00, 187500.00, -29502.42, 187500.00, -187500.02, 187500.00, -187500.02, -187500.02, 0.00, 0.51, -0.51
180, 187500.00, 187500.00, -29572.12, 187500.00, -187500.02, 187500.00, -187500.02, -187500.02, 0.00, 0.00, 0.00
181, 187500.00, 187500.00, -29508.08, 187500.00, -187500.02, 187500.00, -187500.02, -187500.02, 0.00, 0.00, 0.00
182, 187500.00, 187500.00, -29434.83, 187500.00, -187500.02, 187500.00, -187500.02, -187500.02, 0.00, 0.00, 0.00
183, 187500.00, 187500.00, -29484.23, 187500.00, -187500.02, 187500.00, -187500.02, -187500.02, 0.00, 0.00, 0.00
184, 187500.00, 187500.00, -29572.34, 187500.00, -187500.02, 187500.00, -187500.02, -187500.02, 0.00, 0.00, 0.00
185, 187500.00, 187500.00, -29520.80, 187500.00, -187500.02, 187500.00, -187500.02, -187500.02, 0.00, 0.00, 0.00
186, 187500.00, 187500.00, -29431.23, 187500.00, -187500.02, 187500.00, -187500.02, -187500.02, 0.00, 0.00, 0.00
187, 187500.00, 187500.00, -29454.39, 187500.00, -187500.02, 187500.00, -187500.02, -187500.02, 0.00, 0.00, 0.00
188, 187500.00, 187500.00, -29559.62, 187500.00, -187500.02, 187500.00, -187500.02, -187500.02, 0.00, 0.00, 0.00
189, 187500.00, 187500.00, -29525.92, 187500.00, -187500.02, 187500.00, -187500.02, -187500.02, 0.00, 0.00, 0.00
190, 187500.00, 187500.00, -29456.63, 187500.00, -187500.02, 187500.00, -187500.02, -187500.02, 0.00, 0.51, -0.51
191, 187500.00, 187500.00, -29439.08, 187500.00, -187500.02, 187500.00, -187500.02, -187500.02, 0.00, 0.00, 0.00
192, 187500.00, 187500.00, -29545.74, 187500.00, -187500.02, 187500.00, -187500.02, -187500.02, 0.00, 0.00, 0.00
193, 187500.00, 187500.00, -29533.05, 187500.00, -187500.02, 187500.00, -187500.02, -187500.02, 0.00, 0.00, 0.00
194, 187500.00, 187500.00, -29454.46, 187500.00, -187500.02, 187500.00, -187500.02, -187500.02, 0.00, 0.00, 0.00
195, 187500.00, 187500.00, -29421.94, 187500.00, -187500.02, 187500.00, -187500.02, -187500.02, 0.00, 0.00, 0.00
196, 187500.00, 187500.00, -29527.48, 187500.00, -187500.02, 187500.00, -187500.02, -187500.02, 0.00, 0.00, 0.00
197, 187500.00, 187500.00, -29542.23, 187500.00, -187500.02, 187500.00, -187500.02, -187500.02, 0.00, 0.00, 0.00
198, 187500.00, 187500.00, -29463.26, 187500.00, -187500.02, 187500.00, -187500.02, -187500.02, 0.00, 0.00, 0.00
199, 187500.00, 187500.00, -29412.86, 187500.00, -187500.02, 187500.00, -187500.02, -187500.02, 0.00, 0.00, 0.00
200, 187500.00, 187500.00, -29501.51, 187500.00, -187500.02, 187500.00, -187500.02, -187500.02, 0.00, 0.51, -0.51
201, 187500.00, 187500.00, -29559.11, 187500.00, -187500.02, 187500.00, -187500.02, -187500.02, 0.00, 0.00, 0.00
202, 187500.00, 187500.00, -29485.10, 187500.00, -187500.02, 187500.00, -187500.02, -187500.02, 0.00, 0.00, 0.00
203, 187500.00, 187500.00, -29416.77, 187500.00, -187500.02, 187500.00, -187500.02, -187500.02, 0.00, 0.00, 0.00
204, 187500.00, 187500.00, -29470.04, 187500.00, -187500.02, 187500.00, -187500.02, -187500.02, 0.00, 0.00, 0.00
205, 187500.00, 187500.00, -29546.10, 187500.00, -187500.02, 187500.00, -187500.02, -187500.02, 0.00, 0.00, 0.00
206, 187500.00, 187500.00, -29492.99, 187500.00, -187500.02, 187500.00, -187500.02, -187500.02, 0.00, 0.00, 0.00
207, 187500.00, 187500.00, -29417.17, 187500.00, -187500.02, 187500.00, -187500.02, -187500.02, 0.00, 0.00, 0.00
208, 187500.00, 187500.00, -29452.69, 187500.00, -187500.02, 187500.00, -187500.02, -187500.02, 0.00, 0.00, 0.00
209, 187500.00, 187500.00, -29544.94, 187500.00, -187500.02, 187500.00, -187500.02, -187500.02, 0.00, 0.00, 0.00
210, 187500.00, 187500.00, -29497.26, 187500.00, -187500.02, 187500.00, -187500.02, -187500.02, 0.00, 0.51, -0.51
211, 187500.00, 187500.00, -29419.23, 187500.00, -187500.02, 187500.00, -187500.02, -187500.02, 0.00, 0.00, 0.00
212, 187500.00, 187500.00, -29425.89, 187500.00, -187500.02, 187500.00, -187500.02, -187500.02, 0.00, 0.00, 0.00
213, 187500.00, 187500.00, -29536.98, 187500.00, -187500.02, 187500.00, -187500.02, -187500.02, 0.00, 0.00, 0.00
214, 187500.00, 187500.00, -29517.29, 187500.00, -187500.02, 187500.00, -187500.02, -187500.02, 0.00, 0.00, 0.00
215, 187500.00, 187500.00, -29427.99, 187500.00, -187500.02, 187500.00, -187500.02, -187500.02, 0.00, 0.00, 0.00
216, 187500.00, 187500.00, -29390.06, 187500.00, -187500.02, 187500.00, -187500.02, -187500.02, 0.00, 0.00, 0.00
217, 187500.00, 187500.00, -29469.92, 187500.00, -187500.02, 187500.00, -187500.02, -187500.02, 0.00, 0.00, 0.00
218, 187500.00, 187500.00, -29447.10, 187500.00, -187500.02, 187500.00, -187500.02, -187500.02, 0.00, 0.00, 0.00
219, 187500.00, 187500.00, -29366.39, 187500.00, -187500.02, 187500.00, -187500.02, -187500.02, 0.00, 0.00, 0.00
220, 187500.00, 187500.00, -29321.08, 187500.00, -187500.02, 187500.00, -187500.02, -187500.02, 0.00, 0.51, -0.51
221, 187500.00, 187500.00, -29416.50, 187500.00, -187500.02, 187500.00, -187500.02, -187500.02, 0.00, 0.00, 0.00
222, 187500.00, 187500.00, -29443.17, 187500.00, -187500.02, 187500.00, -187500.02, -187500.02, 0.00, 0.00, 0.00
223, 187500.00, 187500.00, -29371.24, 187500.00, -187500.02, 187500.00, -187500.02, -187500.02, 0.00, 0.00, 0.00
224, 187500.00, 187500.00, -29311.12, 187500.00, -187500.02, 187500.00, -187500.02, -187500.02, 0.00, 0.00, 0.00
225, 187500.00, 187500.00, -29390.02, 187500.00, -187500.02, 187500.00, -187500.02, -187500.02, 0.00, 0.00, 0.00
226, 187500.00, 187500.00, -29452.87, 187500.00, -187500.02, 187500.00, -187500.02, -187500.02, 0.00, 0.00, 0.00
227, 187500.00, 187500.00, -29391.83, 187500.00, -187500.02, 187500.00, -187500.02, -187500.02, 0.00, 0.00, 0.00
228, 187500.00, 187500.00, -29327.34, 187500.00, -187500.02, 187500.00, -187500.02, -187500.02, 0.00, 0.00, 0.00
229, 187500.00, 187500.00, -29374.08, 187500.00, -187500.02, 187500.00, -187500.02, -187500.02, 0.00, 0.00, 0.00
230, 187500.00, 187500.00, -29459.31, 187500.00, -187500.02, 187500.00, -187500.02, -187500.02, 0.00, 0.51, -0.51
231, 187500.00, 187500.00, -29409.53, 187500.00, -187500.02, 187500.00, -187500.02, -187500.02, 0.00, 0.00, 0.00
232, 187500.00, 187500.00, -29331.01, 187500.00, -187500.02, 187500.00, -187500.02, -187500.02, 0.00, 0.00, 0.00
233, 187500.00, 187500.00, -29359.57, 187500.00, -187500.02, 187500.00, -187500.02, -187500.02, 0.00, 0.00, 0.00
234, 187500.00, 187500.00, -29465.68, 187500.00, -187500.02, 187500.00, -187500.02, -187500.02, 0.00, 0.00, 0.00
235, 187500.00, 187500.00, -29418.78, 187500.00, -187500.02, 187500.00, -187500.02, -187500.02, 0.00, 0.00, 0.00
236, 187500.00, 187500.00, -29330.83, 187500.00, -187500.02, 187500.00, -187500.02, -187500.02, 0.00, 0.00, 0.00
237, 187500.00, 187500.00, -29334.43, 187500.00, -187500.02, 187500.00, -187500.02, -187500.02, 0.00, 0.00, 0.00
238, 187500.00, 187500.00, -29447.66, 187500.00, -187500.02, 187500.00, -187500.02, -187500.02, 0.00, 0.00, 0.00
239, 187500.00, 187500.00, -29433.11, 187500.00, -187500.02, 187500.00, -187500.02, -187500.02, 0.00, 0.00, 0.00
240, 187500.00, 187500.00, -29353.36, 187500.00, -187500.02, 187500.00, -187500.02, -187500.02, 0.00, 0.51, -0.51
241, 187500.00, 187500.00, -29319.81, 187500.00, -187500.02, 187500.00, -187500.02, -187500.02, 0.00, 0.00, 0.00
242, 187500.00, 187500.00, -29428.33, 187500.00, -187500.02, 187500.00, -187500.02, -187500.02, 0.00, 0.00, 0.00
243, 187500.00, 187500.00, -29444.15, 187500.00, -187500.02, 187500.00, -187500.02, -187500.02, 0.00, 0.00, 0.00
244, 187500.00, 187500.00, -29365.63, 187500.00, -187500.02, 187500.00, -187500.02, -187500.02, 0.00, 0.00, 0.00
245, 187500.00, 187500.00, -29309.37, 187500.00, -187500.02, 187500.00, -187500.02, -187500.02, 0.00, 0.00, 0.00
246, 187500.00, 187500.00, -29410.16, 187500.00, -187500.02, 187500.00, -187500.02, -187500.02, 0.00, 0.00, 0.00
247, 187500.00, 187500.00, -29455.24, 187500.00, -187500.02, 187500.00, -187500.02, -187500.02, 0.00, 0.00, 0.00
248, 187500.00, 187500.00, -29374.53, 187500.00, -187500.02, 187500.00, -187500.02, -187500.02, 0.00, 0.00, 0.00
249, 187500.00, 187500.00, -29315.14, 187500.00, -187500.02, 187500.00, -187500.02, -187500.02, 0.00, 0.00, 0.00
250, 187500.00, 187500.00, -29381.57, 187500.00, -187500.02, 187500.00, -187500.02, -187500.02, 0.00, 0.00, 0.00
251, 187500.00, 187500.00, -29448.02, 187500.00, -187500.02, 187500.00, -187500.02, -187500.02, 0.00, 0.51, -0.51
252, 187500.00, 187500.00, -29390.13, 187500.00, -187500.02, 187500.00, -187500.02, -187500.02, 0.00, 0.00, 0.00
253, 187500.00, 187500.00, -29315.68, 187500.00, -187500.02, 187500.00, -187500.02, -187500.02, 0.00, 0.00, 0.00
254, 187500.00, 187500.00, -29362.75, 187500.00, -187500.02, 187500.00, -187500.02, -187500.02, 0.00, 0.00, 0.00
255, 187500.00, 187500.00, -29445.52, 187500.00, -187500.02, 187500.00, -187500.02, -187500.02, 0.00, 0.00, 0.00
0, 187500.00, 187500.00, -29391.47, 187500.00, -187500.02, 187500.00, -187500.02, -187500.02, 0.00, 0.00, 0.00
1, 187500.00, 187500.00, -29324.19, 187500.00, -187500.02, 187500.00, -187500.02, -187500.02, 0.00, 0.00, 0.00
2, 187500.00, 187500.00, -29338.36, 187500.00, -187500.02, 187500.00, -187500.02, -187500.02, 0.00, 0.00, 0.00
3, 187500.00, 187500.00, -29448.29, 187500.00, -187500.02, 187500.00, -187500.02, -187500.02, 0.00, 0.00, 0.00
4, 187500.00, 187500.00, -29412.59, 187500.00, -187500.02, 187500.00, -187500.02, -187500.02, 0.00, 0.00, 0.00
5, 187500.00, 187500.00, -29322.83, 187500.00, -187500.02, 187500.00, -187500.02, -187500.02, 0.00, 0.51, -0.51
6, 187500.00, 187500.00, -29321.76, 187500.00, -187500.02, 187500.00, -187500.02, -187500.02, 0.00, 0.00, 0.00
7, 187500.00, 187500.00, -29438.12, 187500.00, -187500.02, 187500.00, -187500.02, -187500.02, 0.00, 0.00, 0.00
8, 187500.00, 187500.00, -29424.60, 187500.00, -187500.02, 187500.00, -187500.02, -187500.02, 0.00, 0.00, 0.00
9, 187500.00, 187500.00, -29336.96, 187500.00, -187500.02, 187500.00, -187500.02, -187500.02, 0.00, 0.00, 0.00
10, 187500.00, 187500.00, -29300.61, 187500.00, -187500.02, 187500.00, -187500.02, -187500.02, 0.00, 0.00, 0.00
11, 187500.00, 187500.00, -29407.50, 187500.00, -187500.02, 187500.00, -187500.02, -187500.02, 0.00, 0.00, 0.00
12, 187500.00, 187500.00, -29429.96, 187500.00, -187500.02, 187500.00, -187500.02, -187500.02, 0.00, 0.00, 0.00
13, 187500.00, 187500.00, -29345.92, 187500.00, -187500.02, 187500.00, -187500.02, -187500.02, 0.00, 0.00, 0.00
14, 187500.00, 187500.00, -29288.65, 187500.00, -187500.02, 187500.00, -187500.02, -187500.02, 0.00, 0.00, 0.00
15, 187500.00, 187500.00, -29382.48, 187500.00, -187500.02, 187500.00, -187500.02, -187500.02, 0.00, 0.51, -0.51
16, 187500.00, 187500.00, -29422.81, 187500.00, -187500.02, 187500.00, -187500.02, -187500.02, 0.00, 0.00, 0.00
17, 187500.00, 187500.00, -29348.49, 187500.00, -187500.02, 187500.00, -187500.02, -187500.02, 0.00, 0.00, 0.00
18, 187500.00, 187500.00, -29273.56, 187500.00, -187500.02, 187500.00, -187500.02, -187500.02, 0.00, 0.00, 0.00
19, 187500.00, 187500.00, -29336.26, 187500.00, -187500.02, 187500.00, -187500.02, -187500.02, 0.00, 0.00, 0.00
20, 187500.00, 187500.00, -29409.42, 187500.00, -187500.02, 187500.00, -187500.02, -187500.02, 0.00, 0.00, 0.00
21, 187500.00, 187500.00, -29352.73, 187500.00, -187500.02, 187500.00, -187500.02, -187500.02, 0.00, 0.00, 0.00
22, 187500.00, 187500.00, -29276.85, 187500.00, -187500.02, 187500.00, -187500.02, -187500.02, 0.00, 0.00, 0.00
23, 187500.00, 187500.00, -29318.65, 187500.00, -187500.02, 187500.00, -187500.02, -187500.02, 0.00, 0.00, 0.00
24, 187500.00, 187500.00, -29415.41, 187500.00, -187500.02, 187500.00, -187500.02, -187500.02, 0.00, 0.00, 0.00
25, 187500.00, 187500.00, -29363.98, 187500.00, -187500.02, 187500.00, -187500.02, -187500.02, 0.00, 0.51, -0.51
26, 187500.00, 187500.00, -29285.59, 187500.00, -187500.02, 187500.00, -187500.02, -187500.02, 0.00, 0.00, 0.00
27, 187500.00, 187500.00, -29294.24, 187500.00, -187500.02, 187500.00, -187500.02, -187500.02, 0.00, 0.00, 0.00
28, 187500.00, 187500.00, -29401.73, 187500.00, -187500.02, 187500.00, -187500.02, -187500.02, 0.00, 0.00, 0.00
29, 187500.00, 187500.00, -29390.82, 187500.00, -187500.02, 187500.00, -187500.02, -187500.02, 0.00, 0.00, 0.00
30, 187500.00, 187500.00, -29312.19, 187500.00, -187500.02, 187500.00, -187500.02, -187500.02, 0.00, 0.00, 0.00
31, 187500.00, 187500.00, -29284.12, 187500.00, -187500.02, 187500.00, -187500.02, -187500.02, 0.00, 0.00, 0.00
32, 187500.00, 187500.00, -29390.38, 187500.00, -187500.02, 187500.00, -187500.02, -187500.02, 0.00, 0.00, 0.00
33, 187500.00, 187500.00, -29389.77, 187500.00, -187500.02, 187500.00, -187500.02, -187500.02, 0.00, 0.00, 0.00
34, 187500.00, 187500.00, -29297.03, 187500.00, -187500.02, 187500.00, -187500.02, -187500.02, 0.00, 0.00, 0.00
35, 187500.00, 187500.00, -29257.47, 187500.00, -187500.02, 187500.00, -187500.02, -187500.02, 0.00, 0.51, -0.51
36, 187500.00, 187500.00, -29362.17, 187500.00, -187500.02, 187500.00, -187500.02, -187500.02, 0.00, 0.00, 0.00
37, 187500.00, 187500.00, -29400.03, 187500.00, -187500.02, 187500.00, -187500.02, -187500.02, 0.00, 0.00, 0.00
38, 187500.00, 187500.00, -29325.98, 187500.00, -187500.02, 187500.00, -187500.02, -187500.02, 0.00, 0.00, 0.00
39, 187500.00, 187500.00, -29261.16, 187500.00, -187500.02, 187500.00, -187500.02, -187500.02, 0.00, 0.00, 0.00
40, 187500.00, 187500.00, -29339.59, 187500.00, -187500.02, 187500.00, -187500.02, -187500.02, 0.00, 0.00, 0.00
41, 187500.00, 187500.00, -29397.93, 187500.00, -187500.02, 187500.00, -187500.02, -187500.02, 0.00, 0.00, 0.00
42, 187500.00, 187500.00, -29326.52, 187500.00, -187500.02, 187500.00, -187500.02, -187500.02, 0.00, 0.00, 0.00
43, 187500.00, 187500.00, -29258.97, 187500.00, -187500.02, 187500.00, -187500.02, -187500.02, 0.00, 0.00, 0.00
44, 187500.00, 187500.00, -29313.39, 187500.00, -187500.02, 187500.00, -187500.02, -187500.02, 0.00, 0.00, 0.00
45, 187500.00, 187500.00, -29409.64, 187500.00, -187500.02, 187500.00, -187500.02, -187500.02, 0.00, 0.51, -0.51
46, 187500.00, 187500.00, -29357.54, 187500.00, -187500.02, 187500.00, -187500.02, -187500.02, 0.00, 0.00, 0.00
47, 187500.00, 187500.00, -29263.48, 187500.00, -187500.02, 187500.00, -187500.02, -187500.02, 0.00, 0.00, 0.00
48, 187500.00, 187500.00, -29280.99, 187500.00, -187500.02, 187500.00, -187500.02, -187500.02, 0.00, 0.00, 0.00
49, 187500.00, 187500.00, -29391.67, 187500.00, -187500.02, 187500.00, -187500.02, -187500.02, 0.00, 0.00, 0.00
50, 187500.00, 187500.00, -29359.06, 187500.00, -187500.02, 187500.00, -187500.02, -187500.02, 0.00, 0.00, 0.00
51, 187500.00, 187500.00, -29270.50, 187500.00, -187500.02, 187500.00, -187500.02, -187500.02, 0.00, 0.00, 0.00
52, 187500.00, 187500.00, -29268.18, 187500.00, -187500.02, 187500.00, -187500.02, -187500.02, 0.00, 0.00, 0.00
53, 187500.00, 187500.00, -29376.54, 187500.00, -187500.02, 187500.00, -187500.02, -187500.02, 0.00, 0.00, 0.00
54, 187500.00, 187500.00, -29363.53, 187500.00, -187500.02, 187500.00, -187500.02, -187500.02, 0.00, 0.00, 0.00
55, 187500.00, 187500.00, -29284.38, 187500.00, -187500.02, 187500.00, -187500.02, -187500.02, 0.00, 0.00, 0.00
56, 187500.00, 187500.00, -29251.46, 187500.00, -187500.02, 187500.00, -187500.02, -187500.02, 0.00, 0.51, -0.51
57, 187500.00, 187500.00, -29345.76, 187500.00, -187500.02, 187500.00, -187500.02, -187500.02, 0.00, 0.00, 0.00
58, 187500.00, 187500.00, -29394.38, 187500.00, -187500.02, 187500.00, -187500.02, -187500.02, 0.00, 0.00, 0.00
59, 187500.00, 187500.00, -29311.88, 187500.00, -187500.02, 187500.00, -187500.02, -187500.02, 0.00, 0.00, 0.00
60, 187500.00, 187500.00, -29248.98, 187500.00, -187500.02, 187500.00, -187500.02, -187500.02, 0.00, 0.00, 0.00
61, 187500.00, 187500.00, -29299.43, 187500.00, -187500.02, 187500.00, -187500.02, -187500.02, 0.00, 0.00, 0.00
62, 187500.00, 187500.00, -29358.41, 187500.00, -187500.02, 187500.00, -187500.02, -187500.02, 0.00, 0.00, 0.00
63, 187500.00, 187500.00, -29324.84, 187500.00, -187500.02, 187500.00, -187500.02, -187500.02, 0.00, 0.00, 0.00
64, 187500.00, 187500.00, -29313.17, 187500.00, -187500.02, 187500.00, -187500.02, -187500.02, 0.00, 0.00, 0.00
65, 187500.00, 187500.00, -29352.04, 187500.00, -187500.02, 187500.00, -187500.02, -187500.02, 0.00, 0.00, 0.00
66, 187500.00, 187500.00, -29376.16, 187500.00, -187500.02, 187500.00, -187500.02, -187500.02, 0.00, 0.51, -0.51
67, 187500.00, 187500.00, -29304.05, 187500.00, -187500.02, 187500.00, -187500.02, -187500.02, 0.00, 0.00, 0.00
68, 187500.00, 187500.00, -29275.62, 187500.00, -187500.02, 187500.00, -187500.02, -187500.02, 0.00, 0.00, 0.00
69, 187500.00, 187500.00, -29269.59, 187500.00, -187500.02, 187500.00, -187500.02, -187500.02, 0.00, 0.00, 0.00
70, 187500.00, 187500.00, -29285.25, 187500.00, -187500.02, 187500.00, -187500.02, -187500.02, 0.00, 0.00, 0.00
71, 187500.00, 187500.00, -29297.46, 187500.00, -187500.02, 187500.00, -187500.02, -187500.02, 0.00, 0.00, 0.00
72, 187500.00, 187500.00, -29276.00, 187500.00, -187500.02, 187500.00, -187500.02, -187500.02, 0.00, 0.00, 0.00
73, 187500.00, 187500.00, -29292.83, 187500.00, -187500.02, 187500.00, -187500.02, -187500.02, 0.00, 0.00, 0.00
74, 187500.00, 187500.00, -29325.38, 187500.00, -187500.02, 187500.00, -187500.02, -187500.02, 0.00, 0.00, 0.00
75, 187500.00, 187500.00, -29323.28, 187500.00, -187500.02, 187500.00, -187500.02, -187500.02, 0.00, 0.00, 0.00
76, 187500.00, 187500.00, -29289.21, 187500.00, -187500.02, 187500.00, -187500.02, -187500.02, 0.00, 0.51, -0.51
77, 187500.00, 187500.00, -29282.37, 187500.00, -187500.02, 187500.00, -187500.02, -187500.02, 0.00, 0.00, 0.00
78, 187500.00, 187500.00, -29298.73, 187500.00, -187500.02, 187500.00, -187500.02, -187500.02, 0.00, 0.00, 0.00
79, 187500.00, 187500.00, -29343.19, 187500.00, -187500.02, 187500.00, -187500.02, -187500.02, 0.00, 0.00, 0.00
80, 187500.00, 187500.00, -29359.82, 187500.00, -187500.02, 187500.00, -187500.02, -187500.02, 0.00, 0.00, 0.00
81, 187500.00, 187500.00, -29348.89, 187500.00, -187500.02, 187500.00, -187500.02, -187500.02, 0.00, 0.00, 0.00
82, 187500.00, 187500.00, -29315.81, 187500.00, -187500.02, 187500.00, -187500.02, -187500.02, 0.00, 0.00, 0.00
83, 187500.00, 187500.00, -29274.95, 187500.00, -187500.02, 187500.00, -187500.02, -187500.02, 0.00, 0.00, 0.00
84, 187500.00, 187500.00, -29379.04, 187500.00, -187500.02, 187500.00, -187500.02, -187500.02, 0.00, 0.00, 0.00
85, 187500.00, 187500.00, -29348.24, 187500.00, -187500.02, 187500.00, -187500.02, -187500.02, 0.00, 0.00, 0.00
86, 187500.00, 187500.00, -29183.80, 187500.00, -187500.02, 187500.00, -187500.02, -187500.02, 0.00, 0.51, -0.51
87, 187500.00, 187500.00, -29307.34, 187500.00, -187500.02, 187500.00, -187500.02, -187500.02, 0.00, 0.00, 0.00
88, 187500.00, 187500.00, -29299.38, 187500.00, -187500.02, 187500.00, -187500.02, -187500.02, 0.00, 0.00, 0.00
89, 187500.00, 187500.00, -29267.24, 187500.00, -187500.02, 187500.00, -187500.02, -187500.02, 0.00, 0.00, 0.00
90, 187500.00, 187500.00, -29303.45, 187500.00, -187500.02, 187500.00, -187500.02, -187500.02, 0.00, 0.00, 0.00
91, 187500.00, 187500.00, -29256.98, 187500.00, -187500.02, 187500.00, -187500.02, -187500.02, 0.00, 0.00, 0.00
92, 187500.00, 187500.00, -29245.36, 187500.00, -187500.02, 187500.00, -187500.02, -187500.02, 0.00, 0.00, 0.00
93, 187500.00, 187500.00, -29283.44, 187500.00, -187500.02, 187500.00, -187500.02, -187500.02, 0.00, 0.00, 0.00
94, 187500.00, 187500.00, -29364.29, 187500.00, -187500.02, 187500.00, -187500.02, -187500.02, 0.00, 0.00, 0.00
95, 187500.00, 187500.00, -29426.00, 187500.00, -187500.02, 187500.00, -187500.02, -187500.02, 0.00, 0.00, 0.00
96, 187500.00, 187500.00, -29420.01, 187500.00, -187500.02, 187500.00, -187500.02, -187500.02, 0.00, 0.51, -0.51
97, 187500.00, 187500.00, -29259.77, 187500.00, -187500.02, 187500.00, -187500.02, -187500.02, 0.00, 0.00, 0.00
98, 187500.00, 187500.00, -29149.06, 187500.00, -187500.02, 187500.00, -187500.02, -187500.02, 0.00, 0.00, 0.00
99, 187500.00, 187500.00, -29195.78, 187500.00, -187500.02, 187500.00, -187500.02, -187500.02, 0.00, 0.00, 0.00
100, 187500.00, 187500.00, -29276.80, 187500.00, -187500.02, 187500.00, -187500.02, -187500.02, 0.00, 0.00, 0.00
101, 187500.00, 187500.00, -29336.31, 187500.00, -187500.02, 187500.00, -187500.02, -187500.02, 0.00, 0.00, 0.00
102, 187500.00, 187500.00, -29334.54, 187500.00, -187500.02, 187500.00, -187500.02, -187500.02, 0.00, 0.00, 0.00
103, 187500.00, 187500.00, -29332.30, 187500.00, -187500.02, 187500.00, -187500.02, -187500.02, 0.00, 0.00, 0.00
104, 187500.00, 187500.00, -29291.27, 187500.00, -187500.02, 187500.00, -187500.02, -187500.02, 0.00, 0.00, 0.00
105, 187500.00, 187500.00, -29189.46, 187500.00, -187500.02, 187500.00, -187500.02, -187500.02, 0.00, 0.00, 0.00
106, 187500.00, 187500.00, -29159.35, 187500.00, -187500.02, 187500.00, -187500.02, -187500.02, 0.00, 0.51, -0.51
107, 187500.00, 187500.00, -29204.92, 187500.00, -187500.02, 187500.00, -187500.02, -187500.02, 0.00, 0.00, 0.00
108, 187500.00, 187500.00, -29264.51, 187500.00, -187500.02, 187500.00, -187500.02, -187500.02, 0.00, 0.00, 0.00
109, 187500.00, 187500.00, -29309.75, 187500.00, -187500.02, 187500.00, -187500.02, -187500.02, 0.00, 0.00, 0.00
110, 187500.00, 187500.00, -29303.61, 187500.00, -187500.02, 187500.00, -187500.02, -187500.02, 0.00, 0.00, 0.00
111, 187500.00, 187500.00, -29295.89, 187500.00, -187500.02, 187500.00, -187500.02, -187500.02, 0.00, 0.00, 0.00
112, 187500.00, 187500.00, -29437.29, 187500.00, -187500.02, 187500.00, -187500.02, -187500.02, 0.00, 0.00, 0.00
113, 187500.00, 187500.00, -29417.38, 187500.00, -187500.02, 187500.00, -187500.02, -187500.02, 0.00, 0.00, 0.00
114, 187500.00, 187500.00, -29174.30, 187500.00, -187500.02, 187500.00, -187500.02, -187500.02, 0.00, 0.00, 0.00
115, 187500.00, 187500.00, -29146.21, 187500.00, -187500.02, 187500.00, -187500.02, -187500.02, 0.00, 0.00, 0.00
116, 187500.00, 187500.00, -29245.29, 187500.00, -187500.02, 187500.00, -187500.02, -187500.02, 0.00, 0.00, 0.00
117, 187500.00, 187500.00, -29260.38, 187500.00, -187500.02, 187500.00, -187500.02, -187500.02, 0.00, 0.51, -0.51
118, 187500.00, 187500.00, -29252.91, 187500.00, -187500.02, 187500.00, -187500.02, -187500.02, 0.00, 0.00, 0.00
119, 187500.00, 187500.00, -29250.10, 187500.00, -187500.02, 187500.00, -187500.02, -187500.02, 0.00, 0.00, 0.00
120, 187500.00, 187500.00, -29341.27, 187500.00, -187500.02, 187500.00, -187500.02, -187500.02, 0.00, 0.00, 0.00
121, 187500.00, 187500.00, -29273.03, 187500.00, -187500.02, 187500.00, -187500.02, -187500.02, 0.00, 0.00, 0.00
122, 187500.00, 187500.00, -29161.31, 187500.00, -187500.02, 187500.00, -187500.02, -187500.02, 0.00, 0.00, 0.00
123, 187500.00, 187500.00, -29178.84, 187500.00, -187500.02, 187500.00, -187500.02, -187500.02, 0.00, 0.00, 0.00
124, 187500.00, 187500.00, -29217.22, 187500.00, -187500.02, 187500.00, -187500.02, -187500.02, 0.00, 0.00, 0.00
125, 187500.00, 187500.00, -29229.58, 187500.00, -187500.02, 187500.00, -187500.02, -187500.02, 0.00, 0.00, 0.00
126, 187500.00, 187500.00, -29222.60, 187500.00, -187500.02, 187500.00, -187500.02, -187500.02, 0.00, 0.00, 0.00
127, 187500.00, 187500.00, -29232.08, 187500.00, -187500.02, 187500.00, -187500.02, -187500.02, 0.00, 0.51, -0.51
128, 187500.00, 187500.00, -29243.61, 187500.00, -187500.02, 187500.00, -187500.02, -187500.02, 0.00, 0.00, 0.00
129, 187500.00, 187500.00, -29256.49, 187500.00, -187500.02, 187500.00, -187500.02, -187500.02, 0.00, 0.00, 0.00
130, 187500.00, 187500.00, -29246.05, 187500.00, -187500.02, 187500.00, -187500.02, -187500.02, 0.00, 0.00, 0.00
131, 187500.00, 187500.00, -29242.34, 187500.00, -187500.02, 187500.00, -187500.02, -187500.02, 0.00, 0.00, 0.00
132, 187500.00, 187500.00, -29248.29, 187500.00, -187500.02, 187500.00, -187500.02, -187500.02, 0.00, 0.00, 0.00
133, 187500.00, 187500.00, -29267.87, 187500.00, -187500.02, 187500.00, -187500.02, -187500.02, 0.00, 0.00, 0.00
134, 187500.00, 187500.00, -29263.64, 187500.00, -187500.02, 187500.00, -187500.02, -187500.02, 0.00, 0.00, 0.00
135, 187500.00, 187500.00, -29243.08, 187500.00, -187500.02, 187500.00, -187500.02, -187500.02, 0.00, 0.00, 0.00
136, 187500.00, 187500.00, -29246.38, 187500.00, -187500.02, 187500.00, -187500.02, -187500.02, 0.00, 0.00, 0.00
137, 187500.00, 187500.00, -29247.17, 187500.00, -187500.02, 187500.00, -187500.02, -187500.02, 0.00, 0.51, -0.51
138, 187500.00, 187500.00, -29252.82, 187500.00, -187500.02, 187500.00, -187500.02, -187500.02, 0.00, 0.00, 0.00
139, 187500.00, 187500.00, -29231.52, 187500.00, -187500.02, 187500.00, -187500.02, -187500.02, 0.00, 0.00, 0.00
140, 187500.00, 187500.00, -29243.75, 187500.00, -187500.02, 187500.00, -187500.02, -187500.02, 0.00, 0.00, 0.00
141, 187500.00, 187500.00, -29249.42, 187500.00, -187500.02, 187500.00, -187500.02, -187500.02, 0.00, 0.00, 0.00
142, 187500.00, 187500.00, -29252.20, 187500.00, -187500.02, 187500.00, -187500.02, -187500.02, 0.00, 0.00, 0.00
143, 187500.00, 187500.00, -29250.14, 187500.00, -187500.02, 187500.00, -187500.02, -187500.02, 0.00, 0.00, 0.00
144, 187500.00, 187500.00, -29247.23, 187500.00, -187500.02, 187500.00, -187500.02, -187500.02, 0.00, 0.00, 0.00
145, 187500.00, 187500.00, -29219.29, 187500.00, -187500.02, 187500.00, -187500.02, -187500.02, 0.00, 0.00, 0.00
146, 187500.00, 187500.00, -29243.90, 187500.00, -187500.02, 187500.00, -187500.02, -187500.02, 0.00, 0.00, 0.00
147, 187500.00, 187500.00, -29230.98, 187500.00, -187500.02, 187500.00, -187500.02, -187500.02, 0.00, 0.51, -0.51
148, 187500.00, 187500.00, -29227.83, 187500.00, -187500.02, 187500.00, -187500.02, -187500.02, 0.00, 0.00, 0.00
149, 187500.00, 187500.00, -29238.05, 187500.00, -187500.02, 187500.00, -187500.02, -187500.02, 0.00, 0.00, 0.00
150, 187500.00, 187500.00, -29251.55, 187500.00, -187500.02, 187500.00, -187500.02, -187500.02, 0.00, 0.00, 0.00
151, 187500.00, 187500.00, -29234.25, 187500.00, -187500.02, 187500.00, -187500.02, -187500.02, 0.00, 0.00, 0.00
152, 187500.00, 187500.00, -29226.85, 187500.00, -187500.02, 187500.00, -187500.02, -187500.02, 0.00, 0.00, 0.00
153, 187500.00, 187500.00, -29227.05, 187500.00, -187500.02, 187500.00, -187500.02, -187500.02, 0.00, 0.00, 0.00
154, 187500.00, 187500.00, -29248.06, 187500.00, -187500.02, 187500.00, -187500.02, -187500.02, 0.00, 0.00, 0.00
155, 187500.00, 187500.00, -29239.93, 187500.00, -187500.02, 187500.00, -187500.02, -187500.02, 0.00, 0.00, 0.00
156, 187500.00, 187500.00, -29223.38, 187500.00, -187500.02, 187500.00, -187500.02, -187500.02, 0.00, 0.00, 0.00
157, 187500.00, 187500.00, -29222.36, 187500.00, -187500.02, 187500.00, -187500.02, -187500.02, 0.00, 0.51, -0.51
158, 187500.00, 187500.00, -29237.36, 187500.00, -187500.02, 187500.00, -187500.02, -187500.02, 0.00, 0.00, 0.00
159, 187500.00, 187500.00, -29235.14, 187500.00, -187500.02, 187500.00, -187500.02, -187500.02, 0.00, 0.00, 0.00
160, 187500.00, 187500.00, -29215.45, 187500.00, -187500.02, 187500.00, -187500.02, -187500.02, 0.00, 0.00, 0.00
161, 187500.00, 187500.00, -29214.64, 187500.00, -187500.02, 187500.00, -187500.02, -187500.02, 0.00, 0.00, 0.00
162, 187500.00, 187500.00, -29223.99, 187500.00, -187500.02, 187500.00, -187500.02, -187500.02, 0.00, 0.00, 0.00
163, 187500.00, 187500.00, -29231.25, 187500.00, -187500.02, 187500.00, -187500.02, -187500.02, 0.00, 0.00, 0.00
164, 187500.00, 187500.00, -29221.35, 187500.00, -187500.02, 187500.00, -187500.02, -187500.02, 0.00, 0.00, 0.00
165, 187500.00, 187500.00, -29222.56, 187500.00, -187500.02, 187500.00, -187500.02, -187500.02, 0.00, 0.00, 0.00
166, 187500.00, 187500.00, -29207.87, 187500.00, -187500.02, 187500.00, -187500.02, -187500.02, 0.00, 0.00, 0.00
167, 187500.00, 187500.00, -29225.46, 187500.00, -187500.02, 187500.00, -187500.02, -187500.02, 0.00, 0.51, -0.51
168, 187500.00, 187500.00, -29211.99, 187500.00, -187500.02, 187500.00, -187500.02, -187500.02, 0.00, 0.00, 0.00
169, 187500.00, 187500.00, -29210.02, 187500.00, -187500.02, 187500.00, -187500.02, -187500.02, 0.00, 0.00, 0.00
170, 187500.00, 187500.00, -29203.38, 187500.00, -187500.02, 187500.00, -187500.02, -187500.02, 0.00, 0.00, 0.00
171, 187500.00, 187500.00, -29220.48, 187500.00, -187500.02, 187500.00, -187500.02, -187500.02, 0.00, 0.00, 0.00
172, 187500.00, 187500.00, -29209.44, 187500.00, -187500.02, 187500.00, -187500.02, -187500.02, 0.00, 0.00, 0.00
173, 187500.00, 187500.00, -29199.47, 187500.00, -187500.02, 187500.00, -187500.02, -187500.02, 0.00, 0.00, 0.00
174, 187500.00, 187500.00, -29180.22, 187500.00, -187500.02, 187500.00, -187500.02, -187500.02, 0.00, 0.00, 0.00
175, 187500.00, 187500.00, -29208.03, 187500.00, -187500.02, 187500.00, -187500.02, -187500.02, 0.00, 0.00, 0.00
176, 187500.00, 187500.00, -29194.04, 187500.00, -187500.02, 187500.00, -187500.02, -187500.02, 0.00, 0.00, 0.00
177, 187500.00, 187500.00, -29187.82, 187500.00, -187500.02, 187500.00, -187500.02, -187500.02, 0.00, 0.51, -0.51
178, 187500.00, 187500.00, -29184.47, 187500.00, -187500.02, 187500.00, -187500.02, -187500.02, 0.00, 0.00, 0.00
179, 187500.00, 187500.00, -29201.46, 187500.00, -187500.02, 187500.00, -187500.02, -187500.02, 0.00, 0.00, 0.00
180, 187500.00, 187500.00, -29208.30, 187500.00, -187500.02, 187500.00, -187500.02, -187500.02, 0.00, 0.00, 0.00
181, 187500.00, 187500.00, -29180.45, 187500.00, -187500.02, 187500.00, -187500.02, -187500.02, 0.00, 0.00, 0.00
182, 187500.00, 187500.00, -29173.76, 187500.00, -187500.02, 187500.00, -187500.02, -187500.02, 0.00, 0.00, 0.00
183, 187500.00, 187500.00, -29188.07, 187500.00, -187500.02, 187500.00, -187500.02, -187500.02, 0.00, 0.00, 0.00
184, 187500.00, 187500.00, -29191.58, 187500.00, -187500.02, 187500.00, -187500.02, -187500.02, 0.00, 0.00, 0.00
185, 187500.00, 187500.00, -29176.94, 187500.00, -187500.02, 187500.00, -187500.02, -187500.02, 0.00, 0.00, 0.00
186, 187500.00, 187500.00, -29169.21, 187500.00, -187500.02, 187500.00, -187500.02, -187500.02, 0.00, 0.00, 0.00
187, 187500.00, 187500.00, -29181.45, 187500.00, -187500.02, 187500.00, -187500.02, -187500.02, 0.00, 0.00, 0.00
188, 187500.00, 187500.00, -29183.42, 187500.00, -187500.02, 187500.00, -187500.02, -187500.02, 0.00, 0.51, -0.51
189, 187500.00, 187500.00, -29166.81, 187500.00, -187500.02, 187500.00, -187500.02, -187500.02, 0.00, 0.00, 0.00
190, 187500.00, 187500.00, -29168.62, 187500.00, -187500.02, 187500.00, -187500.02, -187500.02, 0.00, 0.00, 0.00
191, 187500.00, 187500.00, -29170.17, 187500.00, -187500.02, 187500.00, -187500.02, -187500.02, 0.00, 0.00, 0.00
192, 187500.00, 187500.00, -29179.40, 187500.00, -187500.02, 187500.00, -187500.02, -187500.02, 0.00, 0.00, 0.00
193, 187500.00, 187500.00, -29164.20, 187500.00, -187500.02, 187500.00, -187500.02, -187500.02, 0.00, 0.00, 0.00
194, 187500.00, 187500.00, -29160.58, 187500.00, -187500.02, 187500.00, -187500.02, -187500.02, 0.00, 0.00, 0.00
195, 187500.00, 187500.00, -29157.47, 187500.00, -187500.02, 187500.00, -187500.02, -187500.02, 0.00, 0.00, 0.00
196, 187500.00, 187500.00, -29176.16, 187500.00, -187500.02, 187500.00, -187500.02, -187500.02, 0.00, 0.00, 0.00
197, 187500.00, 187500.00, -29152.89, 187500.00, -187500.02, 187500.00, -187500.02, -187500.02, 0.00, 0.00, 0.00
198, 187500.00, 187500.00, -29145.60, 187500.00, -187500.02, 187500.00, -187500.02, -187500.02, 0.00, 0.51, -0.51
199, 187500.00, 187500.00, -29150.23, 187500.00, -187500.02, 187500.00, -187500.02, -187500.02, 0.00, 0.00, 0.00
200, 187500.00, 187500.00, -29169.32, 187500.00, -187500.02, 187500.00, -187500.02, -187500.02, 0.00, 0.00, 0.00
201, 187500.00, 187500.00, -29159.93, 187500.00, -187500.02, 187500.00, -187500.02, -187500.02, 0.00, 0.00, 0.00
202, 187500.00, 187500.00, -29137.22, 187500.00, -187500.02, 187500.00, -187500.02, -187500.02, 0.00, 0.00, 0.00
203, 187500.00, 187500.00, -29141.67, 187500.00, -187500.02, 187500.00, -187500.02, -187500.02, 0.00, 0.00, 0.00
204, 187500.00, 187500.00, -29148.82, 187500.00, -187500.02, 187500.00, -187500.02, -187500.02, 0.00, 0.00, 0.00
205, 187500.00, 187500.00, -29143.99, 187500.00, -187500.02, 187500.00, -187500.02, -187500.02, 0.00, 0.00, 0.00
206, 187500.00, 187500.00, -29133.17, 187500.00, -187500.02, 187500.00, -187500.02, -187500.02, 0.00, 0.00, 0.00
207, 187500.00, 187500.00, -29125.26, 187500.00, -187500.02, 187500.00, -187500.02, -187500.02, 0.00, 0.00, 0.00
208, 187500.00, 187500.00, -29144.86, 187500.00, -187500.02, 187500.00, -187500.02, -187500.02, 0.00, 0.51, -0.51
209, 187500.00, 187500.00, -29142.07, 187500.00, -187500.02, 187500.00, -187500.02, -187500.02, 0.00, 0.00, 0.00
210, 187500.00, 187500.00, -29125.04, 187500.00, -187500.02, 187500.00, -187500.02, -187500.02, 0.00, 0.00, 0.00
211, 187500.00, 187500.00, -29129.11, 187500.00, -187500.02, 187500.00, -187500.02, -187500.02, 0.00, 0.00, 0.00
212, 187500.00, 187500.00, -29131.07, 187500.00, -187500.02, 187500.00, -187500.02, -187500.02, 0.00, 0.00, 0.00
213, 187500.00, 187500.00, -29137.04, 187500.00, -187500.02, 187500.00, -187500.02, -187500.02, 0.00, 0.00, 0.00
214, 187500.00, 187500.00, -29119.05, 187500.00, -187500.02, 187500.00, -187500.02, -187500.02, 0.00, 0.00, 0.00
215, 187500.00, 187500.00, -29123.03, 187500.00, -187500.02, 187500.00, -187500.02, -187500.02, 0.00, 0.00, 0.00
216, 187500.00, 187500.00, -29119.31, 187500.00, -187500.02, 187500.00, -187500.02, -187500.02, 0.00, 0.00, 0.00
217, 187500.00, 187500.00, -29124.75, 187500.00, -187500.02, 187500.00, -187500.02, -187500.02, 0.00, 0.00, 0.00
218, 187500.00, 187500.00, -29108.34, 187500.00, -187500.02, 187500.00, -187500.02, -187500.02, 0.00, 0.51, -0.51
219, 187500.00, 187500.00, -29103.78, 187500.00, -187500.02, 187500.00, -187500.02, -187500.02, 0.00, 0.00, 0.00
220, 187500.00, 187500.00, -29110.67, 187500.00, -187500.02, 187500.00, -187500.02, -187500.02, 0.00, 0.00, 0.00
221, 187500.00, 187500.00, -29125.75, 187500.00, -187500.02, 187500.00, -187500.02, -187500.02, 0.00, 0.00, 0.00
222, 187500.00, 187500.00, -29110.29, 187500.00, -187500.02, 187500.00, -187500.02, -187500.02, 0.00, 0.00, 0.00
223, 187500.00, 187500.00, -29110.38, 187500.00, -187500.02, 187500.00, -187500.02, -187500.02, 0.00, 0.00, 0.00
224, 187500.00, 187500.00, -29108.09, 187500.00, -187500.02, 187500.00, -187500.02, -187500.02, 0.00, 0.00, 0.00
225, 187500.00, 187500.00, -29118.78, 187500.00, -187500.02, 187500.00, -187500.02, -187500.02, 0.00, 0.00, 0.00
226, 187500.00, 187500.00, -29105.97, 187500.00, -187500.02, 187500.00, -187500.02, -187500.02, 0.00, 0.00, 0.00
227, 187500.00, 187500.00, -29097.81, 187500.00, -187500.02, 187500.00, -187500.02, -187500.02, 0.00, 0.00, 0.00
228, 187500.00, 187500.00, -29092.67, 187500.00, -187500.02, 187500.00, -187500.02, -187500.02, 0.00, 0.51, -0.51
229, 187500.00, 187500.00, -29090.39, 187500.00, -187500.02, 187500.00, -187500.02, -187500.02, 0.00, 0.00, 0.00
230, 187500.00, 187500.00, -29112.19, 187500.00, -187500.02, 187500.00, -187500.02, -187500.02, 0.00, 0.00, 0.00
231, 187500.00, 187500.00, -29123.99, 187500.00, -187500.02, 187500.00, -187500.02, -187500.02, 0.00, 0.00, 0.00
232, 187500.00, 187500.00, -29089.54, 187500.00, -187500.02, 187500.00, -187500.02, -187500.02, 0.00, 0.00, 0.00
233, 187500.00, 187500.00, -29064.24, 187500.00, -187500.02, 187500.00, -187500.02, -187500.02, 0.00, 0.00, 0.00
234, 187500.00, 187500.00, -29099.11, 187500.00, -187500.02, 187500.00, -187500.02, -187500.02, 0.00, 0.00, 0.00
235, 187500.00, 187500.00, -29114.69, 187500.00, -187500.02, 187500.00, -187500.02, -187500.02, 0.00, 0.00, 0.00
236, 187500.00, 187500.00, -29099.33, 187500.00, -187500.02, 187500.00, -187500.02, -187500.02, 0.00, 0.00, 0.00
237, 187500.00, 187500.00, -29070.99, 187500.00, -187500.02, 187500.00, -187500.02, -187500.02, 0.00, 0.00, 0.00
238, 187500.00, 187500.00, -29092.94, 187500.00, -187500.02, 187500.00, -187500.02, -187500.02, 0.00, 0.51, -0.51
239, 187500.00, 187500.00, -29096.14, 187500.00, -187500.02, 187500.00, -187500.02, -187500.02, 0.00, 0.00, 0.00
240, 187500.00, 187500.00, -29091.22, 187500.00, -187500.02, 187500.00, -187500.02, -187500.02, 0.00, 0.00, 0.00
241, 187500.00, 187500.00, -29044.95, 187500.00, -187500.02, 187500.00, -187500.02, -187500.02, 0.00, 0.00, 0.00
242, 187500.00, 187500.00, -29074.57, 187500.00, -187500.02, 187500.00, -187500.02, -187500.02, 0.00, 0.00, 0.00
243, 187500.00, 187500.00, -29102.66, 187500.00, -187500.02, 187500.00, -187500.02, -187500.02, 0.00, 0.00, 0.00
244, 187500.00, 187500.00, -29104.61, 187500.00, -187500.02, 187500.00, -187500.02, -187500.02, 0.00, 0.00, 0.00
245, 187500.00, 187500.00, -29049.53, 187500.00, -187500.02, 187500.00, -187500.02, -187500.02, 0.00, 0.00, 0.00
246, 187500.00, 187500.00, -29071.37, 187500.00, -187500.02, 187500.00, -187500.02, -187500.02, 0.00, 0.00, 0.00
247, 187500.00, 187500.00, -29091.49, 187500.00, -187500.02, 187500.00, -187500.02, -187500.02, 0.00, 0.00, 0.00
248, 187500.00, 187500.00, -29098.66, 187500.00, -187500.02, 187500.00, -187500.02, -187500.02, 0.00, 0.00, 0.00
249, 187500.00, 187500.00, -29056.69, 187500.00, -187500.02, 187500.00, -187500.02, -187500.02, 0.00, 0.51, -0.51
250, 187500.00, 187500.00, -29062.68, 187500.00, -187500.02, 187500.00, -187500.02, -187500.02, 0.00, 0.00, 0.00
251, 187500.00, 187500.00, -29088.38, 187500.00, -187500.02, 187500.00, -187500.02, -187500.02, 0.00, 0.00, 0.00
252, 187500.00, 187500.00, -29097.90, 187500.00, -187500.02, 187500.00, -187500.02, -187500.02, 0.00, 0.00, 0.00
253, 187500.00, 187500.00, -29060.37, 187500.00, -187500.02, 187500.00, -187500.02, -187500.02, 0.00, 0.00, 0.00
254, 187500.00, 187500.00, -29050.99, 187500.00, -187500.02, 187500.00, -187500.02, -187500.02, 0.00, 0.00, 0.00
255, 187500.00, 187500.00, -29092.94, 187500.00, -187500.02, 187500.00, -187500.02, -187500.02, 0.00, 0.00, 0.00
0, 187500.00, 187500.00, -29098.37, 187500.00, -187500.02, 187500.00, -187500.02, -187500.02, 0.00, 0.00, 0.00
1, 187500.00, 187500.00, -29050.03, 187500.00, -187500.02, 187500.00, -187500.02, -187500.02, 0.00, 0.00, 0.00
2, 187500.00, 187500.00, -29030.82, 187500.00, -187500.02, 187500.00, -187500.02, -187500.02, 0.00, 0.00, 0.00
3, 187500.00, 187500.00, -29077.67, 187500.00, -187500.02, 187500.00, -187500.02, -187500.02, 0.00, 0.51, -0.51
4, 187500.00, 187500.00, -29091.51, 187500.00, -187500.02, 187500.00, -187500.02, -187500.02, 0.00, 0.00, 0.00
5, 187500.00, 187500.00, -29070.41, 187500.00, -187500.02, 187500.00, -187500.02, -187500.02, 0.00, 0.00, 0.00
6, 187500.00, 187500.00, -29017.10, 187500.00, -187500.02, 187500.00, -187500.02, -187500.02, 0.00, 0.00, 0.00
7, 187500.00, 187500.00, -29063.08, 187500.00, -187500.02, 187500.00, -187500.02, -187500.02, 0.00, 0.00, 0.00
8, 187500.00, 187500.00, -29082.48, 187500.00, -187500.02, 187500.00, -187500.02, -187500.02, 0.00, 0.00, 0.00
9, 187500.00, 187500.00, -29063.79, 187500.00, -187500.02, 187500.00, -187500.02, -187500.02, 0.00, 0.00, 0.00
10, 187500.00, 187500.00, -29027.74, 187500.00, -187500.02, 187500.00, -187500.02, -187500.02, 0.00, 0.00, 0.00
11, 187500.00, 187500.00, -29077.88, 187500.00, -187500.02, 187500.00, -187500.02, -187500.02, 0.00, 0.00, 0.00
12, 187500.00, 187500.00, -29101.81, 187500.00, -187500.02, 187500.00, -187500.02, -187500.02, 0.00, 0.00, 0.00
13, 187500.00, 187500.00, -29053.45, 187500.00, -187500.02, 187500.00, -187500.02, -187500.02, 0.00, 0.51, -0.51
14, 187500.00, 187500.00, -28985.47, 187500.00, -187500.02, 187500.00, -187500.02, -187500.02, 0.00, 0.00, 0.00
15, 187500.00, 187500.00, -29022.00, 187500.00, -187500.02, 187500.00, -187500.02, -187500.02, 0.00, 0.00, 0.00
16, 187500.00, 187500.00, -29049.15, 187500.00, -187500.02, 187500.00, -187500.02, -187500.02, 0.00, 0.00, 0.00
17, 187500.00, 187500.00, -29060.84, 187500.00, -187500.02, 187500.00, -187500.02, -187500.02, 0.00, 0.00, 0.00
18, 187500.00, 187500.00, -29019.69, 187500.00, -187500.02, 187500.00, -187500.02, -187500.02, 0.00, 0.00, 0.00
19, 187500.00, 187500.00, -29012.34, 187500.00, -187500.02, 187500.00, -187500.02, -187500.02, 0.00, 0.00, 0.00
20, 187500.00, 187500.00, -29034.40, 187500.00, -187500.02, 187500.00, -187500.02, -187500.02, 0.00, 0.00, 0.00
21, 187500.00, 187500.00, -29051.54, 187500.00, -187500.02, 187500.00, -187500.02, -187500.02, 0.00, 0.00, 0.00
22, 187500.00, 187500.00, -29023.45, 187500.00, -187500.02, 187500.00, -187500.02, -187500.02, 0.00, 0.00, 0.00
23, 187500.00, 187500.00, -29013.59, 187500.00, -187500.02, 187500.00, -187500.02, -187500.02, 0.00, 0.51, -0.51
24, 187500.00, 187500.00, -29048.59, 187500.00, -187500.02, 187500.00, -187500.02, -187500.02, 0.00, 0.00, 0.00
25, 187500.00, 187500.00, -29105.14, 187500.00, -187500.02, 187500.00, -187500.02, -187500.02, 0.00, 0.00, 0.00
26, 187500.00, 187500.00, -29093.28, 187500.00, -187500.02, 187500.00, -187500.02, -187500.02, 0.00, 0.00, 0.00
27, 187500.00, 187500.00, -28992.60, 187500.00, -187500.02, 187500.00, -187500.02, -187500.02, 0.00, 0.00, 0.00
28, 187500.00, 187500.00, -28985.21, 187500.00, -187500.02, 187500.00, -187500.02, -187500.02, 0.00, 0.00, 0.00
29, 187500.00, 187500.00, -29023.36, 187500.00, -187500.02, 187500.00, -187500.02, -187500.02, 0.00, 0.00, 0.00
30, 187500.00, 187500.00, -29020.52, 187500.00, -187500.02, 187500.00, -187500.02, -187500.02, 0.00, 0.00, 0.00
31, 187500.00, 187500.00, -28974.61, 187500.00, -187500.02, 187500.00, -187500.02, -187500.02, 0.00, 0.00, 0.00
32, 187500.00, 187500.00, -29018.75, 187500.00, -187500.02, 187500.00, -187500.02, -187500.02, 0.00, 0.00, 0.00
33, 187500.00, 187500.00, -29040.53, 187500.00, -187500.02, 187500.00, -187500.02, -187500.02, 0.00, 0.51, -0.51
34, 187500.00, 187500.00, -29034.98, 187500.00, -187500.02, 187500.00, -187500.02, -187500.02, 0.00, 0.00, 0.00
35, 187500.00, 187500.00, -28983.57, 187500.00, -187500.02, 187500.00, -187500.02, -187500.02, 0.00, 0.00, 0.00
36, 187500.00, 187500.00, -29005.90, 187500.00, -187500.02, 187500.00, -187500.02, -187500.02, 0.00, 0.00, 0.00
37, 187500.00, 187500.00, -29030.24, 187500.00, -187500.02, 187500.00, -187500.02, -187500.02, 0.00, 0.00, 0.00
38, 187500.00, 187500.00, -29039.25, 187500.00, -187500.02, 187500.00, -187500.02, -187500.02, 0.00, 0.00, 0.00
39, 187500.00, 187500.00, -28986.39, 187500.00, -187500.02, 187500.00, -187500.02, -187500.02, 0.00, 0.00, 0.00
40, 187500.00, 187500.00, -29000.02, 187500.00, -187500.02, 187500.00, -187500.02, -187500.02, 0.00, 0.00, 0.00
41, 187500.00, 187500.00, -29027.36, 187500.00, -187500.02, 187500.00, -187500.02, -187500.02, 0.00, 0.00, 0.00
42, 187500.00, 187500.00, -29041.96, 187500.00, -187500.02, 187500.00, -187500.02, -187500.02, 0.00, 0.00, 0.00
43, 187500.00, 187500.00, -28995.71, 187500.00, -187500.02, 187500.00, -187500.02, -187500.02, 0.00, 0.51, -0.51
44, 187500.00, 187500.00, -29001.59, 187500.00, -187500.02, 187500.00, -187500.02, -187500.02, 0.00, 0.00, 0.00
45, 187500.00, 187500.00, -29010.64, 187500.00, -187500.02, 187500.00, -187500.02, -187500.02, 0.00, 0.00, 0.00
46, 187500.00, 187500.00, -29020.14, 187500.00, -187500.02, 187500.00, -187500.02, -187500.02, 0.00, 0.00, 0.00
47, 187500.00, 187500.00, -29004.43, 187500.00, -187500.02, 187500.00, -187500.02, -187500.02, 0.00, 0.00, 0.00
48, 187500.00, 187500.00, -28984.45, 187500.00, -187500.02, 187500.00, -187500.02, -187500.02, 0.00, 0.00, 0.00
49, 187500.00, 187500.00, -29028.25, 187500.00, -187500.02, 187500.00, -187500.02, -187500.02, 0.00, 0.00, 0.00
50, 187500.00, 187500.00, -29051.50, 187500.00, -187500.02, 187500.00, -187500.02, -187500.02, 0.00, 0.00, 0.00
51, 187500.00, 187500.00, -29008.34, 187500.00, -187500.02, 187500.00, -187500.02, -187500.02, 0.00, 0.00, 0.00
52, 187500.00, 187500.00, -28958.03, 187500.00, -187500.02, 187500.00, -187500.02, -187500.02, 0.00, 0.00, 0.00
53, 187500.00, 187500.00, -28988.74, 187500.00, -187500.02, 187500.00, -187500.02, -187500.02, 0.00, 0.00, 0.00
54, 187500.00, 187500.00, -29016.07, 187500.00, -187500.02, 187500.00, -187500.02, -187500.02, 0.00, 0.51, -0.51
55, 187500.00, 187500.00, -29010.64, 187500.00, -187500.02, 187500.00, -187500.02, -187500.02, 0.00, 0.00, 0.00
56, 187500.00, 187500.00, -28948.79, 187500.00, -187500.02, 187500.00, -187500.02, -187500.02, 0.00, 0.00, 0.00
57, 187500.00, 187500.00, -28989.21, 187500.00, -187500.02, 187500.00, -187500.02, -187500.02, 0.00, 0.00, 0.00
58, 187500.00, 187500.00, -29010.80, 187500.00, -187500.02, 187500.00, -187500.02, -187500.02, 0.00, 0.00, 0.00
59, 187500.00, 187500.00, -29012.72, 187500.00, -187500.02, 187500.00, -187500.02, -187500.02, 0.00, 0.00, 0.00
60, 187500.00, 187500.00, -28958.85, 187500.00, -187500.02, 187500.00, -187500.02, -187500.02, 0.00, 0.00, 0.00
61, 187500.00, 187500.00, -28975.39, 187500.00, -187500.02, 187500.00, -187500.02, -187500.02, 0.00, 0.00, 0.00
62, 187500.00, 187500.00, -28997.88, 187500.00, -187500.02, 187500.00, -187500.02, -187500.02, 0.00, 0.00, 0.00
63, 187500.00, 187500.00, -29003.80, 187500.00, -187500.02, 187500.00, -187500.02, -187500.02, 0.00, 0.00, 0.00
64, 187500.00, 187500.00, -28963.93, 187500.00, -187500.02, 187500.00, -187500.02, -187500.02, 0.00, 0.51, -0.51
65, 187500.00, 187500.00, -29002.04, 187500.00, -187500.02, 187500.00, -187500.02, -187500.02, 0.00, 0.00, 0.00
66, 187500.00, 187500.00, -29022.89, 187500.00, -187500.02, 187500.00, -187500.02, -187500.02, 0.00, 0.00, 0.00
67, 187500.00, 187500.00, -29002.06, 187500.00, -187500.02, 187500.00, -187500.02, -187500.02, 0.00, 0.00, 0.00
68, 187500.00, 187500.00, -28953.15, 187500.00, -187500.02, 187500.00, -187500.02, -187500.02, 0.00, 0.00, 0.00
69, 187500.00, 187500.00, -28936.37, 187500.00, -187500.02, 187500.00, -187500.02, -187500.02, 0.00, 0.00, 0.00
70, 187500.00, 187500.00, -28991.87, 187500.00, -187500.02, 187500.00, -187500.02, -187500.02, 0.00, 0.00, 0.00
71, 187500.00, 187500.00, -29024.14, 187500.00, -187500.02, 187500.00, -187500.02, -187500.02, 0.00, 0.00, 0.00
72, 187500.00, 187500.00, -28966.70, 187500.00, -187500.02, 187500.00, -187500.02, -187500.02, 0.00, 0.00, 0.00
73, 187500.00, 187500.00, -28955.05, 187500.00, -187500.02, 187500.00, -187500.02, -187500.02, 0.00, 0.00, 0.00
74, 187500.00, 187500.00, -28958.83, 187500.00, -187500.02, 187500.00, -187500.02, -187500.02, 0.00, 0.51, -0.51
75, 187500.00, 187500.00, -28961.15, 187500.00, -187500.02, 187500.00, -187500.02, -187500.02, 0.00, 0.00, 0.00
76, 187500.00, 187500.00, -28942.00, 187500.00, -187500.02, 187500.00, -187500.02, -187500.02, 0.00, 0.00, 0.00
77, 187500.00, 187500.00, -28910.73, 187500.00, -187500.02, 187500.00, -187500.02, -187500.02, 0.00, 0.00, 0.00
78, 187500.00, 187500.00, -28971.91, 187500.00, -187500.02, 187500.00, -187500.02, -187500.02, 0.00, 0.00, 0.00
79, 187500.00, 187500.00, -28995.04, 187500.00, -187500.02, 187500.00, -187500.02, -187500.02, 0.00, 0.00, 0.00
80, 187500.00, 187500.00, -28967.01, 187500.00, -187500.02, 187500.00, -187500.02, -187500.02, 0.00, 0.00, 0.00
81, 187500.00, 187500.00, -28915.02, 187500.00, -187500.02, 187500.00, -187500.02, -187500.02, 0.00, 0.00, 0.00
82, 187500.00, 187500.00, -28942.02, 187500.00, -187500.02, 187500.00, -187500.02, -187500.02, 0.00, 0.00, 0.00
83, 187500.00, 187500.00, -28971.17, 187500.00, -187500.02, 187500.00, -187500.02, -187500.02, 0.00, 0.00, 0.00
84, 187500.00, 187500.00, -29003.00, 187500.00, -187500.02, 187500.00, -187500.02, -187500.02, 0.00, 0.51, -0.51
85, 187500.00, 187500.00, -28993.56, 187500.00, -187500.02, 187500.00, -187500.02, -187500.02, 0.00, 0.00, 0.00
86, 187500.00, 187500.00, -28934.02, 187500.00, -187500.02, 187500.00, -187500.02, -187500.02, 0.00, 0.00, 0.00
87, 187500.00, 187500.00, -28913.01, 187500.00, -187500.02, 187500.00, -187500.02, -187500.02, 0.00, 0.00, 0.00
88, 187500.00, 187500.00, -28965.85, 187500.00, -187500.02, 187500.00, -187500.02, -187500.02, 0.00, 0.00, 0.00
89, 187500.00, 187500.00, -28913.70, 187500.00, -187500.02, 187500.00, -187500.02, -187500.02, 0.00, 0.00, 0.00
90, 187500.00, 187500.00, -28933.68, 187500.00, -187500.02, 187500.00, -187500.02, -187500.02, 0.00, 0.00, 0.00
91, 187500.00, 187500.00, -28998.01, 187500.00, -187500.02, 187500.00, -187500.02, -187500.02, 0.00, 0.00, 0.00
92, 187500.00, 187500.00, -29002.04, 187500.00, -187500.02, 187500.00, -187500.02, -187500.02, 0.00, 0.00, 0.00
93, 187500.00, 187500.00, -28927.80, 187500.00, -187500.02, 187500.00, -187500.02, -187500.02, 0.00, 0.00, 0.00
94, 187500.00, 187500.00, -28929.10, 187500.00, -187500.02, 187500.00, -187500.02, -187500.02, 0.00, 0.51, -0.51
95, 187500.00, 187500.00, -28954.54, 187500.00, -187500.02, 187500.00, -187500.02, -187500.02, 0.00, 0.00, 0.00
96, 187500.00, 187500.00, -28955.68, 187500.00, -187500.02, 187500.00, -187500.02, -187500.02, 0.00, 0.00, 0.00
97, 187500.00, 187500.00, -28932.97, 187500.00, -187500.02, 187500.00, -187500.02, -187500.02, 0.00, 0.00, 0.00
98, 187500.00, 187500.00, -28900.40, 187500.00, -187500.02, 187500.00, -187500.02, -187500.02, 0.00, 0.00, 0.00
99, 187500.00, 187500.00, -28915.60, 187500.00, -187500.02, 187500.00, -187500.02, -187500.02, 0.00, 0.00, 0.00
100, 187500.00, 187500.00, -28936.10, 187500.00, -187500.02, 187500.00, -187500.02, -187500.02, 0.00, 0.00, 0.00
101, 187500.00, 187500.00, -28945.22, 187500.00, -187500.02, 187500.00, -187500.02, -187500.02, 0.00, 0.00, 0.00
102, 187500.00, 187500.00, -28903.40, 187500.00, -187500.02, 187500.00, -187500.02, -187500.02, 0.00, 0.00, 0.00
103, 187500.00, 187500.00, -28934.38, 187500.00, -187500.02, 187500.00, -187500.02, -187500.02, 0.00, 0.00, 0.00
104, 187500.00, 187500.00, -28983.89, 187500.00, -187500.02, 187500.00, -187500.02, -187500.02, 0.00, 0.51, -0.51
105, 187500.00, 187500.00, -28995.62, 187500.00, -187500.02, 187500.00, -187500.02, -187500.02, 0.00, 0.00, 0.00
106, 187500.00, 187500.00, -28903.96, 187500.00, -187500.02, 187500.00, -187500.02, -187500.02, 0.00, 0.00, 0.00
107, 187500.00, 187500.00, -28860.93, 187500.00, -187500.02, 187500.00, -187500.02, -187500.02, 0.00, 0.00, 0.00
108, 187500.00, 187500.00, -28881.27, 187500.00, -187500.02, 187500.00, -187500.02, -187500.02, 0.00, 0.00, 0.00
109, 187500.00, 187500.00, -28912.79, 187500.00, -187500.02, 187500.00, -187500.02, -187500.02, 0.00, 0.00, 0.00
110, 187500.00, 187500.00, -28934.24, 187500.00, -187500.02, 187500.00, -187500.02, -187500.02, 0.00, 0.00, 0.00
111, 187500.00, 187500.00, -28940.46, 187500.00, -187500.02, 187500.00, -187500.02, -187500.02, 0.00, 0.00, 0.00
112, 187500.00, 187500.00, -28877.71, 187500.00, -187500.02, 187500.00, -187500.02, -187500.02, 0.00, 0.00, 0.00
113, 187500.00, 187500.00, -28898.37, 187500.00, -187500.02, 187500.00, -187500.02, -187500.02, 0.00, 0.00, 0.00
114, 187500.00, 187500.00, -28861.62, 187500.00, -187500.02, 187500.00, -187500.02, -187500.02, 0.00, 0.00, 0.00
115, 187500.00, 187500.00, -28848.08, 187500.00, -187500.02, 187500.00, -187500.02, -187500.02, 0.00, 0.51, -0.51
116, 187500.00, 187500.00, -28905.81, 187500.00, -187500.02, 187500.00, -187500.02, -187500.02, 0.00, 0.00, 0.00
117, 187500.00, 187500.00, -28962.92, 187500.00, -187500.02, 187500.00, -187500.02, -187500.02, 0.00, 0.00, 0.00
118, 187500.00, 187500.00, -28885.56, 187500.00, -187500.02, 187500.00, -187500.02, -187500.02, 0.00, 0.00, 0.00
119, 187500.00, 187500.00, -28848.10, 187500.00, -187500.02, 187500.00, -187500.02, -187500.02, 0.00, 0.00, 0.00
120, 187500.00, 187500.00, -28871.75, 187500.00, -187500.02, 187500.00, -187500.02, -187500.02, 0.00, 0.00, 0.00
121, 187500.00, 187500.00, -28840.88, 187500.00, -187500.02, 187500.00, -187500.02, -187500.02, 0.00, 0.00, 0.00
122, 187500.00, 187500.00, -28860.04, 187500.00, -187500.02, 187500.00, -187500.02, -187500.02, 0.00, 0.00, 0.00
123, 187500.00, 187500.00, -28868.95, 187500.00, -187500.02, 187500.00, -187500.02, -187500.02, 0.00, 0.00, 0.00
124, 187500.00, 187500.00, -28929.48, 187500.00, -187500.02, 187500.00, -187500.02, -187500.02, 0.00, 0.00, 0.00
125, 187500.00, 187500.00, -28892.67, 187500.00, -187500.02, 187500.00, -187500.02, -187500.02, 0.00, 0.51, -0.51
126, 187500.00, 187500.00, -28856.84, 187500.00, -187500.02, 187500.00, -187500.02, -187500.02, 0.00, 0.00, 0.00
127, 187500.00, 187500.00, -28824.83, 187500.00, -187500.02, 187500.00, -187500.02, -187500.02, 0.00, 0.00, 0.00
128, 187500.00, 187500.00, -28892.06, 187500.00, -187500.02, 187500.00, -187500.02, -187500.02, 0.00, 0.00, 0.00
129, 187500.00, 187500.00, -28964.60, 187500.00, -187500.02, 187500.00, -187500.02, -187500.02, 0.00, 0.00, 0.00
130, 187500.00, 187500.00, -28951.25, 187500.00, -187500.02, 187500.00, -187500.02, -187500.02, 0.00, 0.00, 0.00
131, 187500.00, 187500.00, -28791.44, 187500.00, -187500.02, 187500.00, -187500.02, -187500.02, 0.00, 0.00, 0.00
132, 187500.00, 187500.00, -28794.37, 187500.00, -187500.02, 187500.00, -187500.02, -187500.02, 0.00, 0.00, 0.00
133, 187500.00, 187500.00, -28835.78, 187500.00, -187500.02, 187500.00, -187500.02, -187500.02, 0.00, 0.00, 0.00
134, 187500.00, 187500.00, -28889.56, 187500.00, -187500.02, 187500.00, -187500.02, -187500.02, 0.00, 0.00, 0.00
135, 187500.00, 187500.00, -28881.63, 187500.00, -187500.02, 187500.00, -187500.02, -187500.02, 0.00, 0.51, -0.51
136, 187500.00, 187500.00, -28864.24, 187500.00, -187500.02, 187500.00, -187500.02, -187500.02, 0.00, 0.00, 0.00
137, 187500.00, 187500.00, -28835.56, 187500.00, -187500.02, 187500.00, -187500.02, -187500.02, 0.00, 0.00, 0.00
138, 187500.00, 187500.00, -28848.63, 187500.00, -187500.02, 187500.00, -187500.02, -187500.02, 0.00, 0.00, 0.00
139, 187500.00, 187500.00, -28821.50, 187500.00, -187500.02, 187500.00, -187500.02, -187500.02, 0.00, 0.00, 0.00
140, 187500.00, 187500.00, -28906.55, 187500.00, -187500.02, 187500.00, -187500.02, -187500.02, 0.00, 0.00, 0.00
141, 187500.00, 187500.00, -29004.56, 187500.00, -187500.02, 187500.00, -187500.02, -187500.02, 0.00, 0.00, 0.00
142, 187500.00, 187500.00, -28919.85, 187500.00, -187500.02, 187500.00, -187500.02, -187500.02, 0.00, 0.00, 0.00
143, 187500.00, 187500.00, -28771.14, 187500.00, -187500.02, 187500.00, -187500.02, -187500.02, 0.00, 0.00, 0.00
144, 187500.00, 187500.00, -28720.29, 187500.00, -187500.02, 187500.00, -187500.02, -187500.02, 0.00, 0.00, 0.00
145, 187500.00, 187500.00, -28808.69, 187500.00, -187500.02, 187500.00, -187500.02, -187500.02, 0.00, 0.51, -0.51
146, 187500.00, 187500.00, -28867.63, 187500.00, -187500.02, 187500.00, -187500.02, -187500.02, 0.00, 0.00, 0.00
147, 187500.00, 187500.00, -28862.00, 187500.00, -187500.02, 187500.00, -187500.02, -187500.02, 0.00, 0.00, 0.00
148, 187500.00, 187500.00, -28812.11, 187500.00, -187500.02, 187500.00, -187500.02, -187500.02, 0.00, 0.00, 0.00
149, 187500.00, 187500.00, -28788.89, 187500.00, -187500.02, 187500.00, -187500.02, -187500.02, 0.00, 0.00, 0.00
150, 187500.00, 187500.00, -28790.95, 187500.00, -187500.02, 187500.00, -187500.02, -187500.02, 0.00, 0.00, 0.00
151, 187500.00, 187500.00, -28894.21, 187500.00, -187500.02, 187500.00, -187500.02, -187500.02, 0.00, 0.00, 0.00
152, 187500.00, 187500.00, -29105.39, 187500.00, -187500.02, 187500.00, -187500.02, -187500.02, 0.00, 0.00, 0.00
153, 187500.00, 187500.00, -29069.36, 187500.00, -187500.02, 187500.00, -187500.02, -187500.02, 0.00, 0.00, 0.00
154, 187500.00, 187500.00, -28766.27, 187500.00, -187500.02, 187500.00, -187500.02, -187500.02, 0.00, 0.00, 0.00
155, 187500.00, 187500.00, -28605.38, 187500.00, -187500.02, 187500.00, -187500.02, -187500.02, 0.00, 0.51, -0.51
156, 187500.00, 187500.00, -28622.75, 187500.00, -187500.02, 187500.00, -187500.02, -187500.02, 0.00, 0.00, 0.00
157, 187500.00, 187500.00, -28729.52, 187500.00, -187500.02, 187500.00, -187500.02, -187500.02, 0.00, 0.00, 0.00
158, 187500.00, 187500.00, -28782.09, 187500.00, -187500.02, 187500.00, -187500.02, -187500.02, 0.00, 0.00, 0.00
159, 187500.00, 187500.00, -28781.76, 187500.00, -187500.02, 187500.00, -187500.02, -187500.02, 0.00, 0.00, 0.00
160, 187500.00, 187500.00, -28745.15, 187500.00, -187500.02, 187500.00, -187500.02, -187500.02, 0.00, 0.00, 0.00
161, 187500.00, 187500.00, -28765.04, 187500.00, -187500.02, 187500.00, -187500.02, -187500.02, 0.00, 0.00, 0.00
162, 187500.00, 187500.00, -28808.09, 187500.00, -187500.02, 187500.00, -187500.02, -187500.02, 0.00, 0.00, 0.00
163, 187500.00, 187500.00, -28863.01, 187500.00, -187500.02, 187500.00, -187500.02, -187500.02, 0.00, 0.00, 0.00
164, 187500.00, 187500.00, -28916.41, 187500.00, -187500.02, 187500.00, -187500.02, -187500.02, 0.00, 0.00, 0.00
165, 187500.00, 187500.00, -29033.26, 187500.00, -187500.02, 187500.00, -187500.02, -187500.02, 0.00, 0.51, -0.51
166, 187500.00, 187500.00, -28870.50, 187500.00, -187500.02, 187500.00, -187500.02, -187500.02, 0.00, 0.00, 0.00
167, 187500.00, 187500.00, -28656.66, 187500.00, -187500.02, 187500.00, -187500.02, -187500.02, 0.00, 0.00, 0.00
168, 187500.00, 187500.00, -28610.21, 187500.00, -187500.02, 187500.00, -187500.02, -187500.02, 0.00, 0.00, 0.00
169, 187500.00, 187500.00, -28758.98, 187500.00, -187500.02, 187500.00, -187500.02, -187500.02, 0.00, 0.00, 0.00
170, 187500.00, 187500.00, -28936.28, 187500.00, -187500.02, 187500.00, -187500.02, -187500.02, 0.00, 0.00, 0.00
171, 187500.00, 187500.00, -28909.46, 187500.00, -187500.02, 187500.00, -187500.02, -187500.02, 0.00, 0.00, 0.00
172, 187500.00, 187500.00, -28668.26, 187500.00, -187500.02, 187500.00, -187500.02, -187500.02, 0.00, 0.00, 0.00
173, 187500.00, 187500.00, -28586.05, 187500.00, -187500.02, 187500.00, -187500.02, -187500.02, 0.00, 0.00, 0.00
174, 187500.00, 187500.00, -28685.67, 187500.00, -187500.02, 187500.00, -187500.02, -187500.02, 0.00, 0.00, 0.00
175, 187500.00, 187500.00, -28813.21, 187500.00, -187500.02, 187500.00, -187500.02, -187500.02, 0.00, 0.51, -0.51
176, 187500.00, 187500.00, -28967.46, 187500.00, -187500.02, 187500.00, -187500.02, -187500.02, 0.00, 0.00, 0.00
177, 187500.00, 187500.00, -28871.52, 187500.00, -187500.02, 187500.00, -187500.02, -187500.02, 0.00, 0.00, 0.00
178, 187500.00, 187500.00, -28638.28, 187500.00, -187500.02, 187500.00, -187500.02, -187500.02, 0.00, 0.00, 0.00
179, 187500.00, 187500.00, -28564.84, 187500.00, -187500.02, 187500.00, -187500.02, -187500.02, 0.00, 0.00, 0.00
180, 187500.00, 187500.00, -28651.87, 187500.00, -187500.02, 187500.00, -187500.02, -187500.02, 0.00, 0.00, 0.00
181, 187500.00, 187500.00, -28687.61, 187500.00, -187500.02, 187500.00, -187500.02, -187500.02, 0.00, 0.00, 0.00
182, 187500.00, 187500.00, -28943.25, 187500.00, -187500.02, 187500.00, -187500.02, -187500.02, 0.00, 0.00, 0.00
183, 187500.00, 187500.00, -29026.82, 187500.00, -187500.02, 187500.00, -187500.02, -187500.02, 0.00, 0.00, 0.00
184, 187500.00, 187500.00, -28751.03, 187500.00, -187500.02, 187500.00, -187500.02, -187500.02, 0.00, 0.00, 0.00
185, 187500.00, 187500.00, -28548.85, 187500.00, -187500.02, 187500.00, -187500.02, -187500.02, 0.00, 0.00, 0.00
186, 187500.00, 187500.00, -28599.08, 187500.00, -187500.02, 187500.00, -187500.02, -187500.02, 0.00, 0.51, -0.51
187, 187500.00, 187500.00, -28693.49, 187500.00, -187500.02, 187500.00, -187500.02, -187500.02, 0.00, 0.00, 0.00
188, 187500.00, 187500.00, -28861.71, 187500.00, -187500.02, 187500.00, -187500.02, -187500.02, 0.00, 0.00, 0.00
189, 187500.00, 187500.00, -29210.51, 187500.00, -187500.02, 187500.00, -187500.02, -187500.02, 0.00, 0.00, 0.00
190, 187500.00, 187500.00, -28973.94, 187500.00, -187500.02, 187500.00, -187500.02, -187500.02, 0.00, 0.00, 0.00
191, 187500.00, 187500.00, -28425.41, 187500.00, -187500.02, 187500.00, -187500.02, -187500.02, 0.00, 0.00, 0.00
192, 187500.00, 187500.00, -28406.03, 187500.00, -187500.02, 187500.00, -187500.02, -187500.02, 0.00, 0.00, 0.00
193, 187500.00, 187500.00, -28569.57, 187500.00, -187500.02, 187500.00, -187500.02, -187500.02, 0.00, 0.00, 0.00
194, 187500.00, 187500.00, -28750.42, 187500.00, -187500.02, 187500.00, -187500.02, -187500.02, 0.00, 0.00, 0.00
195, 187500.00, 187500.00, -28800.91, 187500.00, -187500.02, 187500.00, -187500.02, -187500.02, 0.00, 0.00, 0.00
196, 187500.00, 187500.00, -28747.16, 187500.00, -187500.02, 187500.00, -187500.02, -187500.02, 0.00, 0.51, -0.51
197, 187500.00, 187500.00, -28695.79, 187500.00, -187500.02, 187500.00, -187500.02, -187500.02, 0.00, 0.00, 0.00
198, 187500.00, 187500.00, -28594.23, 187500.00, -187500.02, 187500.00, -187500.02, -187500.02, 0.00, 0.00, 0.00
199, 187500.00, 187500.00, -28625.25, 187500.00, -187500.02, 187500.00, -187500.02, -187500.02, 0.00, 0.00, 0.00
200, 187500.00, 187500.00, -28791.55, 187500.00, -187500.02, 187500.00, -187500.02, -187500.02, 0.00, 0.00, 0.00
201, 187500.00, 187500.00, -29178.73, 187500.00, -187500.02, 187500.00, -187500.02, -187500.02, 0.00, 0.00, 0.00
202, 187500.00, 187500.00, -29393.50, 187500.00, -187500.02, 187500.00, -187500.02, -187500.02, 0.00, 0.00, 0.00
203, 187500.00, 187500.00, -28864.79, 187500.00, -187500.02, 187500.00, -187500.02, -187500.02, 0.00, 0.00, 0.00
204, 187500.00, 187500.00, -28307.81, 187500.00, -187500.02, 187500.00, -187500.02, -187500.02, 0.00, 0.00, 0.00
205, 187500.00, 187500.00, -28385.17, 187500.00, -187500.02, 187500.00, -187500.02, -187500.02, 0.00, 0.00, 0.00
206, 187500.00, 187500.00, -28631.15, 187500.00, -187500.02, 187500.00, -187500.02, -187500.02, 0.00, 0.51, -0.51
207, 187500.00, 187500.00, -28981.65, 187500.00, -187500.02, 187500.00, -187500.02, -187500.02, 0.00, 0.00, 0.00
208, 187500.00, 187500.00, -29086.95, 187500.00, -187500.02, 187500.00, -187500.02, -187500.02, 0.00, 0.00, 0.00
209, 187500.00, 187500.00, -29350.68, 187500.00, -187500.02, 187500.00, -187500.02, -187500.02, 0.00, 0.00, 0.00
210, 187500.00, 187500.00, -29142.99, 187500.00, -187500.02, 187500.00, -187500.02, -187500.02, 0.00, 0.00, 0.00
211, 187500.00, 187500.00, -28284.21, 187500.00, -187500.02, 187500.00, -187500.02, -187500.02, 0.00, 0.00, 0.00
212, 187500.00, 187500.00, -28157.14, 187500.00, -187500.02, 187500.00, -187500.02, -187500.02, 0.00, 0.00, 0.00
213, 187500.00, 187500.00, -28500.87, 187500.00, -187500.02, 187500.00, -187500.02, -187500.02, 0.00, 0.00, 0.00
214, 187500.00, 187500.00, -28690.63, 187500.00, -187500.02, 187500.00, -187500.02, -187500.02, 0.00, 0.00, 0.00
215, 187500.00, 187500.00, -28904.76, 187500.00, -187500.02, 187500.00, -187500.02, -187500.02, 0.00, 0.00, 0.00
216, 187500.00, 187500.00, -28803.37, 187500.00, -187500.02, 187500.00, -187500.02, -187500.02, 0.00, 0.51, -0.51
217, 187500.00, 187500.00, -28344.13, 187500.00, -187500.02, 187500.00, -187500.02, -187500.02, 0.00, 0.00, 0.00
218, 187500.00, 187500.00, -28229.38, 187500.00, -187500.02, 187500.00, -187500.02, -187500.02, 0.00, 0.00, 0.00
219, 187500.00, 187500.00, -28484.10, 187500.00, -187500.02, 187500.00, -187500.02, -187500.02, 0.00, 0.00, 0.00
220, 187500.00, 187500.00, -29100.94, 187500.00, -187500.02, 187500.00, -187500.02, -187500.02, 0.00, 0.00, 0.00
221, 187500.00, 187500.00, -29703.81, 187500.00, -187500.02, 187500.00, -187500.02, -187500.02, 0.00, 0.00, 0.00
222, 187500.00, 187500.00, -28804.09, 187500.00, -187500.02, 187500.00, -187500.02, -187500.02, 0.00, 0.00, 0.00
223, 187500.00, 187500.00, -28073.16, 187500.00, -187500.02, 187500.00, -187500.02, -187500.02, 0.00, 0.00, 0.00
224, 187500.00, 187500.00, -28291.56, 187500.00, -187500.02, 187500.00, -187500.02, -187500.02, 0.00, 0.00, 0.00
225, 187500.00, 187500.00, -28564.90, 187500.00, -187500.02, 187500.00, -187500.02, -187500.02, 0.00, 0.00, 0.00
226, 187500.00, 187500.00, -29099.87, 187500.00, -187500.02, 187500.00, -187500.02, -187500.02, 0.00, 0.51, -0.51
227, 187500.00, 187500.00, -29845.05, 187500.00, -187500.02, 187500.00, -187500.02, -187500.02, 0.00, 0.00, 0.00
228, 187500.00, 187500.00, -29787.43, 187500.00, -187500.02, 187500.00, -187500.02, -187500.02, 0.00, 0.00, 0.00
229, 187500.00, 187500.00, -28286.11, 187500.00, -187500.02, 187500.00, -187500.02, -187500.02, 0.00, 0.00, 0.00
230, 187500.00, 187500.00, -27915.25, 187500.00, -187500.02, 187500.00, -187500.02, -187500.02, 0.00, 0.00, 0.00
231, 187500.00, 187500.00, -28468.75, 187500.00, -187500.02, 187500.00, -187500.02, -187500.02, 0.00, 0.00, 0.00
232, 187500.00, 187500.00, -29174.21, 187500.00, -187500.02, 187500.00, -187500.02, -187500.02, 0.00, 0.00, 0.00
233, 187500.00, 187500.00, -29221.64, 187500.00, -187500.02, 187500.00, -187500.02, -187500.02, 0.00, 0.00, 0.00
234, 187500.00, 187500.00, -28449.61, 187500.00, -187500.02, 187500.00, -187500.02, -187500.02, 0.00, 0.00, 0.00
235, 187500.00, 187500.00, -27986.39, 187500.00, -187500.02, 187500.00, -187500.02, -187500.02, 0.00, 0.00, 0.00
236, 187500.00, 187500.00, -28218.74, 187500.00, -187500.02, 187500.00, -187500.02, -187500.02, 0.00, 0.51, -0.51
237, 187500.00, 187500.00, -28884.18, 187500.00, -187500.02, 187500.00, -187500.02, -187500.02, 0.00, 0.00, 0.00
238, 187500.00, 187500.00, -29640.24, 187500.00, -187500.02, 187500.00, -187500.02, -187500.02, 0.00, 0.00, 0.00
239, 187500.00, 187500.00, -29105.30, 187500.00, -187500.02, 187500.00, -187500.02, -187500.02, 0.00, 0.00, 0.00
240, 187500.00, 187500.00, -28035.28, 187500.00, -187500.02, 187500.00, -187500.02, -187500.02, 0.00, 0.00, 0.00
241, 187500.00, 187500.00, -27937.78, 187500.00, -187500.02, 187500.00, -187500.02, -187500.02, 0.00, 0.00, 0.00
242, 187500.00, 187500.00, -28348.20, 187500.00, -187500.02, 187500.00, -187500.02, -187500.02, 0.00, 0.00, 0.00
243, 187500.00, 187500.00, -29026.44, 187500.00, -187500.02, 187500.00, -187500.02, -187500.02, 0.00, 0.00, 0.00
244, 187500.00, 187500.00, -29582.51, 187500.00, -187500.02, 187500.00, -187500.02, -187500.02, 0.00, 0.00, 0.00
245, 187500.00, 187500.00, -29416.10, 187500.00, -187500.02, 187500.00, -187500.02, -187500.02, 0.00, 0.00, 0.00
246, 187500.00, 187500.00, -28885.11, 187500.00, -187500.02, 187500.00, -187500.02, -187500.02, 0.00, 0.00, 0.00
247, 187500.00, 187500.00, -28691.06, 187500.00, -187500.02, 187500.00, -187500.02, -187500.02, 0.00, 0.51, -0.51
248, 187500.00, 187500.00, -28129.13, 187500.00, -187500.02, 187500.00, -187500.02, -187500.02, 0.00, 0.00, 0.00
249, 187500.00, 187500.00, -28511.75, 187500.00, -187500.02, 187500.00, -187500.02, -187500.02, 0.00, 0.00, 0.00
250, 187500.00, 187500.00, -28802.17, 187500.00, -187500.02, 187500.00, -187500.02, -187500.02, 0.00, 0.00, 0.00
251, 187500.00, 187500.00, -28474.33, 187500.00, -187500.02, 187500.00, -187500.02, -187500.02, 0.00, 0.00, 0.00
252, 187500.00, 187500.00, -28376.63, 187500.00, -187500.02, 187500.00, -187500.02, -187500.02, 0.00, 0.00, 0.00
253, 187500.00, 187500.00, -28695.68, 187500.00, -187500.02, 187500.00, -187500.02, -187500.02, 0.00, 0.00, 0.00
254, 187500.00, 187500.00, -28585.15, 187500.00, -187500.02, 187500.00, -187500.02, -187500.02, 0.00, 0.00, 0.00
255, 187500.00, 187500.00, -28341.94, 187500.00, -187500.02, 187500.00, -187500.02, -187500.02, 0.00, 0.00, 0.00
0, 187500.00, 187500.00, -28650.64, 187500.00, -187500.02, 187500.00, -187500.02, -187500.02, 0.00, 0.00, 0.00
1, 187500.00, 187500.00, -29062.38, 187500.00, -187500.02, 187500.00, -187500.02, -187500.02, 0.00, 0.51, -0.51
2, 187500.00, 187500.00, -29257.18, 187500.00, -187500.02, 187500.00, -187500.02, -187500.02, 0.00, 0.00, 0.00
3, 187500.00, 187500.00, -28214.03, 187500.00, -187500.02, 187500.00, -187500.02, -187500.02, 0.00, 0.00, 0.00
4, 187500.00, 187500.00, -28248.49, 187500.00, -187500.02, 187500.00, -187500.02, -187500.02, 0.00, 0.00, 0.00
5, 187500.00, 187500.00, -28319.30, 187500.00, -187500.02, 187500.00, -187500.02, -187500.02, 0.00, 0.00, 0.00
6, 187500.00, 187500.00, -28593.58, 187500.00, -187500.02, 187500.00, -187500.02, -187500.02, 0.00, 0.00, 0.00
7, 187500.00, 187500.00, -28784.44, 187500.00, -187500.02, 187500.00, -187500.02, -187500.02, 0.00, 0.00, 0.00
8, 187500.00, 187500.00, -28357.28, 187500.00, -187500.02, 187500.00, -187500.02, -187500.02, 0.00, 0.00, 0.00
9, 187500.00, 187500.00, -28315.77, 187500.00, -187500.02, 187500.00, -187500.02, -187500.02, 0.00, 0.00, 0.00
10, 187500.00, 187500.00, -28486.38, 187500.00, -187500.02, 187500.00, -187500.02, -187500.02, 0.00, 0.00, 0.00
11, 187500.00, 187500.00, -28700.69, 187500.00, -187500.02, 187500.00, -187500.02, -187500.02, 0.00, 0.51, -0.51
12, 187500.00, 187500.00, -28865.73, 187500.00, -187500.02, 187500.00, -187500.02, -187500.02, 0.00, 0.00, 0.00
13, 187500.00, 187500.00, -28551.22, 187500.00, -187500.02, 187500.00, -187500.02, -187500.02, 0.00, 0.00, 0.00
14, 187500.00, 187500.00, -28488.24, 187500.00, -187500.02, 187500.00, -187500.02, -187500.02, 0.00, 0.00, 0.00
15, 187500.00, 187500.00, -28629.61, 187500.00, -187500.02, 187500.00, -187500.02, -187500.02, 0.00, 0.00, 0.00
16, 187500.00, 187500.00, -28678.38, 187500.00, -187500.02, 187500.00, -187500.02, -187500.02, 0.00, 0.00, 0.00
17, 187500.00, 187500.00, -28691.44, 187500.00, -187500.02, 187500.00, -187500.02, -187500.02, 0.00, 0.00, 0.00
18, 187500.00, 187500.00, -29024.12, 187500.00, -187500.02, 187500.00, -187500.02, -187500.02, 0.00, 0.00, 0.00
19, 187500.00, 187500.00, -28602.61, 187500.00, -187500.02, 187500.00, -187500.02, -187500.02, 0.00, 0.00, 0.00
20, 187500.00, 187500.00, -28184.97, 187500.00, -187500.02, 187500.00, -187500.02, -187500.02, 0.00, 0.00, 0.00
21, 187500.00, 187500.00, -28168.52, 187500.00, -187500.02, 187500.00, -187500.02, -187500.02, 0.00, 0.51, -0.51
22, 187500.00, 187500.00, -28416.67, 187500.00, -187500.02, 187500.00, -187500.02, -187500.02, 0.00, 0.00, 0.00
23, 187500.00, 187500.00, -28875.86, 187500.00, -187500.02, 187500.00, -187500.02, -187500.02, 0.00, 0.00, 0.00
24, 187500.00, 187500.00, -29050.34, 187500.00, -187500.02, 187500.00, -187500.02, -187500.02, 0.00, 0.00, 0.00
25, 187500.00, 187500.00, -28431.89, 187500.00, -187500.02, 187500.00, -187500.02, -187500.02, 0.00, 0.00, 0.00
26, 187500.00, 187500.00, -28088.25, 187500.00, -187500.02, 187500.00, -187500.02, -187500.02, 0.00, 0.00, 0.00
27, 187500.00, 187500.00, -28308.35, 187500.00, -187500.02, 187500.00, -187500.02, -187500.02, 0.00, 0.00, 0.00
28, 187500.00, 187500.00, -28342.99, 187500.00, -187500.02, 187500.00, -187500.02, -187500.02, 0.00, 0.00, 0.00
29, 187500.00, 187500.00, -28438.93, 187500.00, -187500.02, 187500.00, -187500.02, -187500.02, 0.00, 0.00, 0.00
30, 187500.00, 187500.00, -28668.23, 187500.00, -187500.02, 187500.00, -187500.02, -187500.02, 0.00, 0.00, 0.00
31, 187500.00, 187500.00, -29080.45, 187500.00, -187500.02, 187500.00, -187500.02, -187500.02, 0.00, 0.51, -0.51
32, 187500.00, 187500.00, -28614.23, 187500.00, -187500.02, 187500.00, -187500.02, -187500.02, 0.00, 0.00, 0.00
33, 187500.00, 187500.00, -28274.98, 187500.00, -187500.02, 187500.00, -187500.02, -187500.02, 0.00, 0.00, 0.00
34, 187500.00, 187500.00, -28552.25, 187500.00, -187500.02, 187500.00, -187500.02, -187500.02, 0.00, 0.00, 0.00
35, 187500.00, 187500.00, -28988.56, 187500.00, -187500.02, 187500.00, -187500.02, -187500.02, 0.00, 0.00, 0.00
36, 187500.00, 187500.00, -28951.92, 187500.00, -187500.02, 187500.00, -187500.02, -187500.02, 0.00, 0.00, 0.00
37, 187500.00, 187500.00, -28208.37, 187500.00, -187500.02, 187500.00, -187500.02, -187500.02, 0.00, 0.00, 0.00
38, 187500.00, 187500.00, -28320.75, 187500.00, -187500.02, 187500.00, -187500.02, -187500.02, 0.00, 0.00, 0.00
39, 187500.00, 187500.00, -28318.92, 187500.00, -187500.02, 187500.00, -187500.02, -187500.02, 0.00, 0.00, 0.00
40, 187500.00, 187500.00, -28922.93, 187500.00, -187500.02, 187500.00, -187500.02, -187500.02, 0.00, 0.00, 0.00
41, 187500.00, 187500.00, -28594.81, 187500.00, -187500.02, 187500.00, -187500.02, -187500.02, 0.00, 0.51, -0.51
42, 187500.00, 187500.00, -28404.46, 187500.00, -187500.02, 187500.00, -187500.02, -187500.02, 0.00, 0.00, 0.00
43, 187500.00, 187500.00, -28470.98, 187500.00, -187500.02, 187500.00, -187500.02, -187500.02, 0.00, 0.00, 0.00
44, 187500.00, 187500.00, -28276.88, 187500.00, -187500.02, 187500.00, -187500.02, -187500.02, 0.00, 0.00, 0.00
45, 187500.00, 187500.00, -28298.89, 187500.00, -187500.02, 187500.00, -187500.02, -187500.02, 0.00, 0.00, 0.00
46, 187500.00, 187500.00, -28388.86, 187500.00, -187500.02, 187500.00, -187500.02, -187500.02, 0.00, 0.00, 0.00
47, 187500.00, 187500.00, -28633.79, 187500.00, -187500.02, 187500.00, -187500.02, -187500.02, 0.00, 0.00, 0.00
48, 187500.00, 187500.00, -28445.37, 187500.00, -187500.02, 187500.00, -187500.02, -187500.02, 0.00, 0.00, 0.00
49, 187500.00, 187500.00, -28196.48, 187500.00, -187500.02, 187500.00, -187500.02, -187500.02, 0.00, 0.00, 0.00
50, 187500.00, 187500.00, -28352.92, 187500.00, -187500.02, 187500.00, -187500.02, -187500.02, 0.00, 0.00, 0.00
51, 187500.00, 187500.00, -28674.34, 187500.00, -187500.02, 187500.00, -187500.02, -187500.02, 0.00, 0.00, 0.00
52, 187500.00, 187500.00, -28709.32, 187500.00, -187500.02, 187500.00, -187500.02, -187500.02, 0.00, 0.51, -0.51
53, 187500.00, 187500.00, -28345.30, 187500.00, -187500.02, 187500.00, -187500.02, -187500.02, 0.00, 0.00, 0.00
54, 187500.00, 187500.00, -28368.99, 187500.00, -187500.02, 187500.00, -187500.02, -187500.02, 0.00, 0.00, 0.00
55, 187500.00, 187500.00, -28508.20, 187500.00, -187500.02, 187500.00, -187500.02, -187500.02, 0.00, 0.00, 0.00
56, 187500.00, 187500.00, -28662.54, 187500.00, -187500.02, 187500.00, -187500.02, -187500.02, 0.00, 0.00, 0.00
57, 187500.00, 187500.00, -28673.89, 187500.00, -187500.02, 187500.00, -187500.02, -187500.02, 0.00, 0.00, 0.00
58, 187500.00, 187500.00, -28430.12, 187500.00, -187500.02, 187500.00, -187500.02, -187500.02, 0.00, 0.00, 0.00
59, 187500.00, 187500.00, -28651.40, 187500.00, -187500.02, 187500.00, -187500.02, -187500.02, 0.00, 0.00, 0.00
60, 187500.00, 187500.00, -28414.39, 187500.00, -187500.02, 187500.00, -187500.02, -187500.02, 0.00, 0.00, 0.00
61, 187500.00, 187500.00, -28714.55, 187500.00, -187500.02, 187500.00, -187500.02, -187500.02, 0.00, 0.00, 0.00
62, 187500.00, 187500.00, -29144.04, 187500.00, -187500.02, 187500.00, -187500.02, -187500.02, 0.00, 0.51, -0.51
63, 187500.00, 187500.00, -28359.09, 187500.00, -187500.02, 187500.00, -187500.02, -187500.02, 0.00, 0.00, 0.00
64, 187500.00, 187500.00, -27994.75, 187500.00, -187500.02, 187500.00, -187500.02, -187500.02, 0.00, 0.00, 0.00
65, 187500.00, 187500.00, -28289.69, 187500.00, -187500.02, 187500.00, -187500.02, -187500.02, 0.00, 0.00, 0.00
66, 187500.00, 187500.00, -28417.02, 187500.00, -187500.02, 187500.00, -187500.02, -187500.02, 0.00, 0.00, 0.00
67, 187500.00, 187500.00, -28838.55, 187500.00, -187500.02, 187500.00, -187500.02, -187500.02, 0.00, 0.00, 0.00
68, 187500.00, 187500.00, -28646.64, 187500.00, -187500.02, 187500.00, -187500.02, -187500.02, 0.00, 0.00, 0.00
69, 187500.00, 187500.00, -28533.25, 187500.00, -187500.02, 187500.00, -187500.02, -187500.02, 0.00, 0.00, 0.00
70, 187500.00, 187500.00, -28461.26, 187500.00, -187500.02, 187500.00, -187500.02, -187500.02, 0.00, 0.00, 0.00
71, 187500.00, 187500.00, -28046.95, 187500.00, -187500.02, 187500.00, -187500.02, -187500.02, 0.00, 0.00, 0.00
72, 187500.00, 187500.00, -28256.90, 187500.00, -187500.02, 187500.00, -187500.02, -187500.02, 0.00, 0.51, -0.51
73, 187500.00, 187500.00, -28330.41, 187500.00, -187500.02, 187500.00, -187500.02, -187500.02, 0.00, 0.00, 0.00
74, 187500.00, 187500.00, -28249.70, 187500.00, -187500.02, 187500.00, -187500.02, -187500.02, 0.00, 0.00, 0.00
75, 187500.00, 187500.00, -28387.54, 187500.00, -187500.02, 187500.00, -187500.02, -187500.02, 0.00, 0.00, 0.00
76, 187500.00, 187500.00, -28780.60, 187500.00, -187500.02, 187500.00, -187500.02, -187500.02, 0.00, 0.00, 0.00
77, 187500.00, 187500.00, -28949.26, 187500.00, -187500.02, 187500.00, -187500.02, -187500.02, 0.00, 0.00, 0.00
78, 187500.00, 187500.00, -28571.00, 187500.00, -187500.02, 187500.00, -187500.02, -187500.02, 0.00, 0.00, 0.00
79, 187500.00, 187500.00, -27885.57, 187500.00, -187500.02, 187500.00, -187500.02, -187500.02, 0.00, 0.00, 0.00
80, 187500.00, 187500.00, -28220.78, 187500.00, -187500.02, 187500.00, -187500.02, -187500.02, 0.00, 0.00, 0.00
81, 187500.00, 187500.00, -28763.68, 187500.00, -187500.02, 187500.00, -187500.02, -187500.02, 0.00, 0.00, 0.00
82, 187500.00, 187500.00, -28933.88, 187500.00, -187500.02, 187500.00, -187500.02, -187500.02, 0.00, 0.51, -0.51
83, 187500.00, 187500.00, -28914.01, 187500.00, -187500.02, 187500.00, -187500.02, -187500.02, 0.00, 0.00, 0.00
84, 187500.00, 187500.00, -28914.46, 187500.00, -187500.02, 187500.00, -187500.02, -187500.02, 0.00, 0.00, 0.00
85, 187500.00, 187500.00, -28016.14, 187500.00, -187500.02, 187500.00, -187500.02, -187500.02, 0.00, 0.00, 0.00
86, 187500.00, 187500.00, -28021.33, 187500.00, -187500.02, 187500.00, -187500.02, -187500.02, 0.00, 0.00, 0.00
87, 187500.00, 187500.00, -28543.94, 187500.00, -187500.02, 187500.00, -187500.02, -187500.02, 0.00, 0.00, 0.00
88, 187500.00, 187500.00, -29064.22, 187500.00, -187500.02, 187500.00, -187500.02, -187500.02, 0.00, 0.00, 0.00
89, 187500.00, 187500.00, -28499.72, 187500.00, -187500.02, 187500.00, -187500.02, -187500.02, 0.00, 0.00, 0.00
90, 187500.00, 187500.00, -28120.10, 187500.00, -187500.02, 187500.00, -187500.02, -187500.02, 0.00, 0.00, 0.00
91, 187500.00, 187500.00, -27951.55, 187500.00, -187500.02, 187500.00, -187500.02, -187500.02, 0.00, 0.00, 0.00
92, 187500.00, 187500.00, -28270.20, 187500.00, -187500.02, 187500.00, -187500.02, -187500.02, 0.00, 0.51, -0.51
93, 187500.00, 187500.00, -29327.32, 187500.00, -187500.02, 187500.00, -187500.02, -187500.02, 0.00, 0.00, 0.00
94, 187500.00, 187500.00, -29912.62, 187500.00, -187500.02, 187500.00, -187500.02, -187500.02, 0.00, 0.00, 0.00
95, 187500.00, 187500.00, -28132.96, 187500.00, -187500.02, 187500.00, -187500.02, -187500.02, 0.00, 0.00, 0.00
96, 187500.00, 187500.00, -27367.56, 187500.00, -187500.02, 187500.00, -187500.02, -187500.02, 0.00, 0.00, 0.00
97, 187500.00, 187500.00, -28082.66, 187500.00, -187500.02, 187500.00, -187500.02, -187500.02, 0.00, 0.00, 0.00
98, 187500.00, 187500.00, -28882.95, 187500.00, -187500.02, 187500.00, -187500.02, -187500.02, 0.00, 0.00, 0.00
99, 187500.00, 187500.00, -28461.01, 187500.00, -187500.02, 187500.00, -187500.02, -187500.02, 0.00, 0.00, 0.00
100, 187500.00, 187500.00, -27947.88, 187500.00, -187500.02, 187500.00, -187500.02, -187500.02, 0.00, 0.00, 0.00
101, 187500.00, 187500.00, -28227.10, 187500.00, -187500.02, 187500.00, -187500.02, -187500.02, 0.00, 0.00, 0.00
102, 187500.00, 187500.00, -28810.62, 187500.00, -187500.02, 187500.00, -187500.02, -187500.02, 0.00, 0.51, -0.51
103, 187500.00, 187500.00, -28918.55, 187500.00, -187500.02, 187500.00, -187500.02, -187500.02, 0.00, 0.00, 0.00
104, 187500.00, 187500.00, -28240.15, 187500.00, -187500.02, 187500.00, -187500.02, -187500.02, 0.00, 0.00, 0.00
105, 187500.00, 187500.00, -28109.57, 187500.00, -187500.02, 187500.00, -187500.02, -187500.02, 0.00, 0.00, 0.00
106, 187500.00, 187500.00, -28280.68, 187500.00, -187500.02, 187500.00, -187500.02, -187500.02, 0.00, 0.00, 0.00
107, 187500.00, 187500.00, -28888.06, 187500.00, -187500.02, 187500.00, -187500.02, -187500.02, 0.00, 0.00, 0.00
108, 187500.00, 187500.00, -29728.98, 187500.00, -187500.02, 187500.00, -187500.02, -187500.02, 0.00, 0.00, 0.00
109, 187500.00, 187500.00, -29021.32, 187500.00, -187500.02, 187500.00, -187500.02, -187500.02, 0.00, 0.00, 0.00
110, 187500.00, 187500.00, -27651.10, 187500.00, -187500.02, 187500.00, -187500.02, -187500.02, 0.00, 0.00, 0.00
111, 187500.00, 187500.00, -27773.09, 187500.00, -187500.02, 187500.00, -187500.02, -187500.02, 0.00, 0.00, 0.00
112, 187500.00, 187500.00, -28337.99, 187500.00, -187500.02, 187500.00, -187500.02, -187500.02, 0.00, 0.00, 0.00
113, 187500.00, 187500.00, -29051.48, 187500.00, -187500.02, 187500.00, -187500.02, -187500.02, 0.00, 0.51, -0.51
114, 187500.00, 187500.00, -28809.01, 187500.00, -187500.02, 187500.00, -187500.02, -187500.02, 0.00, 0.00, 0.00
115, 187500.00, 187500.00, -27929.93, 187500.00, -187500.02, 187500.00, -187500.02, -187500.02, 0.00, 0.00, 0.00
116, 187500.00, 187500.00, -28105.39, 187500.00, -187500.02, 187500.00, -187500.02, -187500.02, 0.00, 0.00, 0.00
117, 187500.00, 187500.00, -28321.89, 187500.00, -187500.02, 187500.00, -187500.02, -187500.02, 0.00, 0.00, 0.00
118, 187500.00, 187500.00, -28598.36, 187500.00, -187500.02, 187500.00, -187500.02, -187500.02, 0.00, 0.00, 0.00
119, 187500.00, 187500.00, -28750.36, 187500.00, -187500.02, 187500.00, -187500.02, -187500.02, 0.00, 0.00, 0.00
120, 187500.00, 187500.00, -28746.73, 187500.00, -187500.02, 187500.00, -187500.02, -187500.02, 0.00, 0.00, 0.00
121, 187500.00, 187500.00, -28160.45, 187500.00, -187500.02, 187500.00, -187500.02, -187500.02, 0.00, 0.00, 0.00
122, 187500.00, 187500.00, -27976.34, 187500.00, -187500.02, 187500.00, -187500.02, -187500.02, 0.00, 0.00, 0.00
123, 187500.00, 187500.00, -28245.38, 187500.00, -187500.02, 187500.00, -187500.02, -187500.02, 0.00, 0.51, -0.51
124, 187500.00, 187500.00, -28375.92, 187500.00, -187500.02, 187500.00, -187500.02, -187500.02, 0.00, 0.00, 0.00
125, 187500.00, 187500.00, -29389.53, 187500.00, -187500.02, 187500.00, -187500.02, -187500.02, 0.00, 0.00, 0.00
126, 187500.00, 187500.00, -29931.60, 187500.00, -187500.02, 187500.00, -187500.02, -187500.02, 0.00, 0.00, 0.00
127, 187500.00, 187500.00, -28020.48, 187500.00, -187500.02, 187500.00, -187500.02, -187500.02, 0.00, 0.00, 0.00
128, 187500.00, 187500.00, -27276.48, 187500.00, -187500.02, 187500.00, -187500.02, -187500.02, 0.00, 0.00, 0.00
129, 187500.00, 187500.00, -27976.87, 187500.00, -187500.02, 187500.00, -187500.02, -187500.02, 0.00, 0.00, 0.00
130, 187500.00, 187500.00, -28691.10, 187500.00, -187500.02, 187500.00, -187500.02, -187500.02, 0.00, 0.00, 0.00
131, 187500.00, 187500.00, -29970.04, 187500.00, -187500.02, 187500.00, -187500.02, -187500.02, 0.00, 0.00, 0.00
132, 187500.00, 187500.00, -29202.06, 187500.00, -187500.02, 187500.00, -187500.02, -187500.02, 0.00, 0.00, 0.00
133, 187500.00, 187500.00, -27762.32, 187500.00, -187500.02, 187500.00, -187500.02, -187500.02, 0.00, 0.51, -0.51
134, 187500.00, 187500.00, -27506.93, 187500.00, -187500.02, 187500.00, -187500.02, -187500.02, 0.00, 0.00, 0.00
135, 187500.00, 187500.00, -28359.04, 187500.00, -187500.02, 187500.00, -187500.02, -187500.02, 0.00, 0.00, 0.00
136, 187500.00, 187500.00, -28921.23, 187500.00, -187500.02, 187500.00, -187500.02, -187500.02, 0.00, 0.00, 0.00
137, 187500.00, 187500.00, -28802.01, 187500.00, -187500.02, 187500.00, -187500.02, -187500.02, 0.00, 0.00, 0.00
138, 187500.00, 187500.00, -28948.66, 187500.00, -187500.02, 187500.00, -187500.02, -187500.02, 0.00, 0.00, 0.00
139, 187500.00, 187500.00, -28488.50, 187500.00, -187500.02, 187500.00, -187500.02, -187500.02, 0.00, 0.00, 0.00
140, 187500.00, 187500.00, -27896.85, 187500.00, -187500.02, 187500.00, -187500.02, -187500.02, 0.00, 0.00, 0.00
141, 187500.00, 187500.00, -28138.97, 187500.00, -187500.02, 187500.00, -187500.02, -187500.02, 0.00, 0.00, 0.00
142, 187500.00, 187500.00, -28325.45, 187500.00, -187500.02, 187500.00, -187500.02, -187500.02, 0.00, 0.00, 0.00
143, 187500.00, 187500.00, -28222.52, 187500.00, -187500.02, 187500.00, -187500.02, -187500.02, 0.00, 0.51, -0.51
144, 187500.00, 187500.00, -28838.31, 187500.00, -187500.02, 187500.00, -187500.02, -187500.02, 0.00, 0.00, 0.00
145, 187500.00, 187500.00, -29364.56, 187500.00, -187500.02, 187500.00, -187500.02, -187500.02, 0.00, 0.00, 0.00
146, 187500.00, 187500.00, -28744.52, 187500.00, -187500.02, 187500.00, -187500.02, -187500.02, 0.00, 0.00, 0.00
147, 187500.00, 187500.00, -28489.58, 187500.00, -187500.02, 187500.00, -187500.02, -187500.02, 0.00, 0.00, 0.00
148, 187500.00, 187500.00, -27870.08, 187500.00, -187500.02, 187500.00, -187500.02, -187500.02, 0.00, 0.00, 0.00
149, 187500.00, 187500.00, -27691.87, 187500.00, -187500.02, 187500.00, -187500.02, -187500.02, 0.00, 0.00, 0.00
150, 187500.00, 187500.00, -28782.79, 187500.00, -187500.02, 187500.00, -187500.02, -187500.02, 0.00, 0.00, 0.00
151, 187500.00, 187500.00, -29515.39, 187500.00, -187500.02, 187500.00, -187500.02, -187500.02, 0.00, 0.00, 0.00
152, 187500.00, 187500.00, -28902.95, 187500.00, -187500.02, 187500.00, -187500.02, -187500.02, 0.00, 0.00, 0.00
153, 187500.00, 187500.00, -28222.74, 187500.00, -187500.02, 187500.00, -187500.02, -187500.02, 0.00, 0.51, -0.51
154, 187500.00, 187500.00, -27956.80, 187500.00, -187500.02, 187500.00, -187500.02, -187500.02, 0.00, 0.00, 0.00
155, 187500.00, 187500.00, -28233.96, 187500.00, -187500.02, 187500.00, -187500.02, -187500.02, 0.00, 0.00, 0.00
156, 187500.00, 187500.00, -29000.34, 187500.00, -187500.02, 187500.00, -187500.02, -187500.02, 0.00, 0.00, 0.00
157, 187500.00, 187500.00, -28255.62, 187500.00, -187500.02, 187500.00, -187500.02, -187500.02, 0.00, 0.00, 0.00
158, 187500.00, 187500.00, -27762.03, 187500.00, -187500.02, 187500.00, -187500.02, -187500.02, 0.00, 0.00, 0.00
159, 187500.00, 187500.00, -28021.33, 187500.00, -187500.02, 187500.00, -187500.02, -187500.02, 0.00, 0.00, 0.00
160, 187500.00, 187500.00, -28552.10, 187500.00, -187500.02, 187500.00, -187500.02, -187500.02, 0.00, 0.00, 0.00
161, 187500.00, 187500.00, -29473.63, 187500.00, -187500.02, 187500.00, -187500.02, -187500.02, 0.00, 0.00, 0.00
162, 187500.00, 187500.00, -28567.76, 187500.00, -187500.02, 187500.00, -187500.02, -187500.02, 0.00, 0.00, 0.00
163, 187500.00, 187500.00, -27931.50, 187500.00, -187500.02, 187500.00, -187500.02, -187500.02, 0.00, 0.51, -0.51
164, 187500.00, 187500.00, -27949.94, 187500.00, -187500.02, 187500.00, -187500.02, -187500.02, 0.00, 0.00, 0.00
165, 187500.00, 187500.00, -27945.98, 187500.00, -187500.02, 187500.00, -187500.02, -187500.02, 0.00, 0.00, 0.00
166, 187500.00, 187500.00, -28213.58, 187500.00, -187500.02, 187500.00, -187500.02, -187500.02, 0.00, 0.00, 0.00
167, 187500.00, 187500.00, -28435.82, 187500.00, -187500.02, 187500.00, -187500.02, -187500.02, 0.00, 0.00, 0.00
168, 187500.00, 187500.00, -29098.71, 187500.00, -187500.02, 187500.00, -187500.02, -187500.02, 0.00, 0.00, 0.00
169, 187500.00, 187500.00, -29197.23, 187500.00, -187500.02, 187500.00, -187500.02, -187500.02, 0.00, 0.00, 0.00
170, 187500.00, 187500.00, -28291.52, 187500.00, -187500.02, 187500.00, -187500.02, -187500.02, 0.00, 0.00, 0.00
171, 187500.00, 187500.00, -27616.90, 187500.00, -187500.02, 187500.00, -187500.02, -187500.02, 0.00, 0.00, 0.00
172, 187500.00, 187500.00, -27999.78, 187500.00, -187500.02, 187500.00, -187500.02, -187500.02, 0.00, 0.00, 0.00
173, 187500.00, 187500.00, -28410.27, 187500.00, -187500.02, 187500.00, -187500.02, -187500.02, 0.00, 0.00, 0.00
174, 187500.00, 187500.00, -28627.71, 187500.00, -187500.02, 187500.00, -187500.02, -187500.02, 0.00, 0.51, -0.51
175, 187500.00, 187500.00, -28399.48, 187500.00, -187500.02, 187500.00, -187500.02, -187500.02, 0.00, 0.00, 0.00
176, 187500.00, 187500.00, -28101.15, 187500.00, -187500.02, 187500.00, -187500.02, -187500.02, 0.00, 0.00, 0.00
177, 187500.00, 187500.00, -28093.28, 187500.00, -187500.02, 187500.00, -187500.02, -187500.02, 0.00, 0.00, 0.00
178, 187500.00, 187500.00, -28346.73, 187500.00, -187500.02, 187500.00, -187500.02, -187500.02, 0.00, 0.00, 0.00
179, 187500.00, 187500.00, -29022.71, 187500.00, -187500.02, 187500.00, -187500.02, -187500.02, 0.00, 0.00, 0.00
180, 187500.00, 187500.00, -28317.96, 187500.00, -187500.02, 187500.00, -187500.02, -187500.02, 0.00, 0.00, 0.00
181, 187500.00, 187500.00, -27985.48, 187500.00, -187500.02, 187500.00, -187500.02, -187500.02, 0.00, 0.00, 0.00
182, 187500.00, 187500.00, -27979.96, 187500.00, -187500.02, 187500.00, -187500.02, -187500.02, 0.00, 0.00, 0.00
183, 187500.00, 187500.00, -28137.25, 187500.00, -187500.02, 187500.00, -187500.02, -187500.02, 0.00, 0.00, 0.00
184, 187500.00, 187500.00, -28281.84, 187500.00, -187500.02, 187500.00, -187500.02, -187500.02, 0.00, 0.51, -0.51
185, 187500.00, 187500.00, -28340.36, 187500.00, -187500.02, 187500.00, -187500.02, -187500.02, 0.00, 0.00, 0.00
186, 187500.00, 187500.00, -28346.86, 187500.00, -187500.02, 187500.00, -187500.02, -187500.02, 0.00, 0.00, 0.00
187, 187500.00, 187500.00, -28384.97, 187500.00, -187500.02, 187500.00, -187500.02, -187500.02, 0.00, 0.00, 0.00
188, 187500.00, 187500.00, -28249.45, 187500.00, -187500.02, 187500.00, -187500.02, -187500.02, 0.00, 0.00, 0.00
189, 187500.00, 187500.00, -28212.46, 187500.00, -187500.02, 187500.00, -187500.02, -187500.02, 0.00, 0.00, 0.00
190, 187500.00, 187500.00, -28280.90, 187500.00, -187500.02, 187500.00, -187500.02, -187500.02, 0.00, 0.00, 0.00
191, 187500.00, 187500.00, -28298.78, 187500.00, -187500.02, 187500.00, -187500.02, -187500.02, 0.00, 0.00, 0.00
192, 187500.00, 187500.00, -28310.43, 187500.00, -187500.02, 187500.00, -187500.02, -187500.02, 0.00, 0.00, 0.00
193, 187500.00, 187500.00, -28380.63, 187500.00, -187500.02, 187500.00, -187500.02, -187500.02, 0.00, 0.00, 0.00
194, 187500.00, 187500.00, -28497.74, 187500.00, -187500.02, 187500.00, -187500.02, -187500.02, 0.00, 0.51, -0.51
195, 187500.00, 187500.00, -28451.38, 187500.00, -187500.02, 187500.00, -187500.02, -187500.02, 0.00, 0.00, 0.00
196, 187500.00, 187500.00, -28127.08, 187500.00, -187500.02, 187500.00, -187500.02, -187500.02, 0.00, 0.00, 0.00
197, 187500.00, 187500.00, -28104.57, 187500.00, -187500.02, 187500.00, -187500.02, -187500.02, 0.00, 0.00, 0.00
198, 187500.00, 187500.00, -28234.83, 187500.00, -187500.02, 187500.00, -187500.02, -187500.02, 0.00, 0.00, 0.00
199, 187500.00, 187500.00, -28262.15, 187500.00, -187500.02, 187500.00, -187500.02, -187500.02, 0.00, 0.00, 0.00
200, 187500.00, 187500.00, -28276.92, 187500.00, -187500.02, 187500.00, -187500.02, -187500.02, 0.00, 0.00, 0.00
201, 187500.00, 187500.00, -28266.78, 187500.00, -187500.02, 187500.00, -187500.02, -187500.02, 0.00, 0.00, 0.00
202, 187500.00, 187500.00, -28279.29, 187500.00, -187500.02, 187500.00, -187500.02, -187500.02, 0.00, 0.00, 0.00
203, 187500.00, 187500.00, -28255.82, 187500.00, -187500.02, 187500.00, -187500.02, -187500.02, 0.00, 0.00, 0.00
204, 187500.00, 187500.00, -28258.30, 187500.00, -187500.02, 187500.00, -187500.02, -187500.02, 0.00, 0.51, -0.51
205, 187500.00, 187500.00, -28273.75, 187500.00, -187500.02, 187500.00, -187500.02, -187500.02, 0.00, 0.00, 0.00
206, 187500.00, 187500.00, -28288.05, 187500.00, -187500.02, 187500.00, -187500.02, -187500.02, 0.00, 0.00, 0.00
207, 187500.00, 187500.00, -28265.84, 187500.00, -187500.02, 187500.00, -187500.02, -187500.02, 0.00, 0.00, 0.00
208, 187500.00, 187500.00, -28262.53, 187500.00, -187500.02, 187500.00, -187500.02, -187500.02, 0.00, 0.00, 0.00
209, 187500.00, 187500.00, -28258.95, 187500.00, -187500.02, 187500.00, -187500.02, -187500.02, 0.00, 0.00, 0.00
210, 187500.00, 187500.00, -28268.23, 187500.00, -187500.02, 187500.00, -187500.02, -187500.02, 0.00, 0.00, 0.00
211, 187500.00, 187500.00, -28254.82, 187500.00, -187500.02, 187500.00, -187500.02, -187500.02, 0.00, 0.00, 0.00
212, 187500.00, 187500.00, -28251.73, 187500.00, -187500.02, 187500.00, -187500.02, -187500.02, 0.00, 0.00, 0.00
213, 187500.00, 187500.00, -28268.72, 187500.00, -187500.02, 187500.00, -187500.02, -187500.02, 0.00, 0.00, 0.00
214, 187500.00, 187500.00, -28292.10, 187500.00, -187500.02, 187500.00, -187500.02, -187500.02, 0.00, 0.51, -0.51
215, 187500.00, 187500.00, -28273.30, 187500.00, -187500.02, 187500.00, -187500.02, -187500.02, 0.00, 0.00, 0.00
216, 187500.00, 187500.00, -28272.32, 187500.00, -187500.02, 187500.00, -187500.02, -187500.02, 0.00, 0.00, 0.00
217, 187500.00, 187500.00, -28291.36, 187500.00, -187500.02, 187500.00, -187500.02, -187500.02, 0.00, 0.00, 0.00
218, 187500.00, 187500.00, -28314.27, 187500.00, -187500.02, 187500.00, -187500.02, -187500.02, 0.00, 0.00, 0.00
219, 187500.00, 187500.00, -28322.61, 187500.00, -187500.02, 187500.00, -187500.02, -187500.02, 0.00, 0.00, 0.00
220, 187500.00, 187500.00, -28322.14, 187500.00, -187500.02, 187500.00, -187500.02, -187500.02, 0.00, 0.00, 0.00
221, 187500.00, 187500.00, -28313.54, 187500.00, -187500.02, 187500.00, -187500.02, -187500.02, 0.00, 0.00, 0.00
222, 187500.00, 187500.00, -28299.56, 187500.00, -187500.02, 187500.00, -187500.02, -187500.02, 0.00, 0.00, 0.00
223, 187500.00, 187500.00, -28330.03, 187500.00, -187500.02, 187500.00, -187500.02, -187500.02, 0.00, 0.00, 0.00
224, 187500.00, 187500.00, -28309.24, 187500.00, -187500.02, 187500.00, -187500.02, -187500.02, 0.00, 0.51, -0.51
225, 187500.00, 187500.00, -28286.00, 187500.00, -187500.02, 187500.00, -187500.02, -187500.02, 0.00, 0.00, 0.00
226, 187500.00, 187500.00, -28312.87, 187500.00, -187500.02, 187500.00, -187500.02, -187500.02, 0.00, 0.00, 0.00
227, 187500.00, 187500.00, -28337.41, 187500.00, -187500.02, 187500.00, -187500.02, -187500.02, 0.00, 0.00, 0.00
228, 187500.00, 187500.00, -28379.83, 187500.00, -187500.02, 187500.00, -187500.02, -187500.02, 0.00, 0.00, 0.00
229, 187500.00, 187500.00, -28445.90, 187500.00, -187500.02, 187500.00, -187500.02, -187500.02, 0.00, 0.00, 0.00
230, 187500.00, 187500.00, -28311.26, 187500.00, -187500.02, 187500.00, -187500.02, -187500.02, 0.00, 0.00, 0.00
231, 187500.00, 187500.00, -28291.76, 187500.00, -187500.02, 187500.00, -187500.02, -187500.02, 0.00, 0.00, 0.00
232, 187500.00, 187500.00, -28311.99, 187500.00, -187500.02, 187500.00, -187500.02, -187500.02, 0.00, 0.00, 0.00
233, 187500.00, 187500.00, -28333.56, 187500.00, -187500.02, 187500.00, -187500.02, -187500.02, 0.00, 0.00, 0.00
234, 187500.00, 187500.00, -28351.69, 187500.00, -187500.02, 187500.00, -187500.02, -187500.02, 0.00, 0.51, -0.51
235, 187500.00, 187500.00, -28388.64, 187500.00, -187500.02, 187500.00, -187500.02, -187500.02, 0.00, 0.00, 0.00
236, 187500.00, 187500.00, -28380.43, 187500.00, -187500.02, 187500.00, -187500.02, -187500.02, 0.00, 0.00, 0.00
237, 187500.00, 187500.00, -28380.70, 187500.00, -187500.02, 187500.00, -187500.02, -187500.02, 0.00, 0.00, 0.00
238, 187500.00, 187500.00, -28412.60, 187500.00, -187500.02, 187500.00, -187500.02, -187500.02, 0.00, 0.00, 0.00
239, 187500.00, 187500.00, -28409.89, 187500.00, -187500.02, 187500.00, -187500.02, -187500.02, 0.00, 0.00, 0.00
240, 187500.00, 187500.00, -28419.39, 187500.00, -187500.02, 187500.00, -187500.02, -187500.02, 0.00, 0.00, 0.00
241, 187500.00, 187500.00, -28555.04, 187500.00, -187500.02, 187500.00, -187500.02, -187500.02, 0.00, 0.00, 0.00
242, 187500.00, 187500.00, -28611.62, 187500.00, -187500.02, 187500.00, -187500.02, -187500.02, 0.00, 0.00, 0.00
243, 187500.00, 187500.00, -28618.03, 187500.00, -187500.02, 187500.00, -187500.02, -187500.02, 0.00, 0.00, 0.00
244, 187500.00, 187500.00, -28413.47, 187500.00, -187500.02, 187500.00, -187500.02, -187500.02, 0.00, 0.00, 0.00
245, 187500.00, 187500.00, -28126.81, 187500.00, -187500.02, 187500.00, -187500.02, -187500.02, 0.00, 0.51, -0.51
246, 187500.00, 187500.00, -28167.76, 187500.00, -187500.02, 187500.00, -187500.02, -187500.02, 0.00, 0.00, 0.00
247, 187500.00, 187500.00, -28277.66, 187500.00, -187500.02, 187500.00, -187500.02, -187500.02, 0.00, 0.00, 0.00
248, 187500.00, 187500.00, -28336.42, 187500.00, -187500.02, 187500.00, -187500.02, -187500.02, 0.00, 0.00, 0.00
249, 187500.00, 187500.00, -28358.73, 187500.00, -187500.02, 187500.00, -187500.02, -187500.02, 0.00, 0.00, 0.00
250, 187500.00, 187500.00, -28408.11, 187500.00, -187500.02, 187500.00, -187500.02, -187500.02, 0.00, 0.00, 0.00
251, 187500.00, 187500.00, -28406.65, 187500.00, -187500.02, 187500.00, -187500.02, -187500.02, 0.00, 0.00, 0.00
252, 187500.00, 187500.00, -28413.78, 187500.00, -187500.02, 187500.00, -187500.02, -187500.02, 0.00, 0.00, 0.00
253, 187500.00, 187500.00, -28364.32, 187500.00, -187500.02, 187500.00, -187500.02, -187500.02, 0.00, 0.00, 0.00
254, 187500.00, 187500.00, -28381.64, 187500.00, -187500.02, 187500.00, -187500.02, -187500.02, 0.00, 0.00, 0.00
255, 187500.00, 187500.00, -28422.07, 187500.00, -187500.02, 187500.00, -187500.02, -187500.02, 0.00, 0.51, -0.51
0, 187500.00, 187500.00, -28435.84, 187500.00, -187500.02, 187500.00, -187500.02, -187500.02, 0.00, 0.00, 0.00
1, 187500.00, 187500.00, -28427.71, 187500.00, -187500.02, 187500.00, -187500.02, -187500.02, 0.00, 0.00, 0.00
2, 187500.00, 187500.00, -28414.25, 187500.00, -187500.02, 187500.00, -187500.02, -187500.02, 0.00, 0.00, 0.00
3, 187500.00, 187500.00, -28412.62, 187500.00, -187500.02, 187500.00, -187500.02, -187500.02, 0.00, 0.00, 0.00
4, 187500.00, 187500.00, -28434.30, 187500.00, -187500.02, 187500.00, -187500.02, -187500.02, 0.00, 0.00, 0.00
5, 187500.00, 187500.00, -28432.29, 187500.00, -187500.02, 187500.00, -187500.02, -187500.02, 0.00, 0.00, 0.00
6, 187500.00, 187500.00, -28416.00, 187500.00, -187500.02, 187500.00, -187500.02, -187500.02, 0.00, 0.00, 0.00
7, 187500.00, 187500.00, -28421.07, 187500.00, -187500.02, 187500.00, -187500.02, -187500.02, 0.00, 0.00, 0.00
8, 187500.00, 187500.00, -28440.00, 187500.00, -187500.02, 187500.00, -187500.02, -187500.02, 0.00, 0.00, 0.00
9, 187500.00, 187500.00, -28461.57, 187500.00, -187500.02, 187500.00, -187500.02, -187500.02, 0.00, 0.51, -0.51
10, 187500.00, 187500.00, -28525.88, 187500.00, -187500.02, 187500.00, -187500.02, -187500.02, 0.00, 0.00, 0.00
11, 187500.00, 187500.00, -28561.28, 187500.00, -187500.02, 187500.00, -187500.02, -187500.02, 0.00, 0.00, 0.00
12, 187500.00, 187500.00, -28461.64, 187500.00, -187500.02, 187500.00, -187500.02, -187500.02, 0.00, 0.00, 0.00
13, 187500.00, 187500.00, -28343.22, 187500.00, -187500.02, 187500.00, -187500.02, -187500.02, 0.00, 0.00, 0.00
14, 187500.00, 187500.00, -28372.63, 187500.00, -187500.02, 187500.00, -187500.02, -187500.02, 0.00, 0.00, 0.00
15, 187500.00, 187500.00, -28466.04, 187500.00, -187500.02, 187500.00, -187500.02, -187500.02, 0.00, 0.00, 0.00
16, 187500.00, 187500.00, -28453.59, 187500.00, -187500.02, 187500.00, -187500.02, -187500.02, 0.00, 0.00, 0.00
17, 187500.00, 187500.00, -28432.67, 187500.00, -187500.02, 187500.00, -187500.02, -187500.02, 0.00, 0.00, 0.00
18, 187500.00, 187500.00, -28414.74, 187500.00, -187500.02, 187500.00, -187500.02, -187500.02, 0.00, 0.00, 0.00
19, 187500.00, 187500.00, -28394.81, 187500.00, -187500.02, 187500.00, -187500.02, -187500.02, 0.00, 0.51, -0.51
20, 187500.00, 187500.00, -28395.52, 187500.00, -187500.02, 187500.00, -187500.02, -187500.02, 0.00, 0.00, 0.00
21, 187500.00, 187500.00, -28439.38, 187500.00, -187500.02, 187500.00, -187500.02, -187500.02, 0.00, 0.00, 0.00
22, 187500.00, 187500.00, -28478.00, 187500.00, -187500.02, 187500.00, -187500.02, -187500.02, 0.00, 0.00, 0.00
23, 187500.00, 187500.00, -28541.99, 187500.00, -187500.02, 187500.00, -187500.02, -187500.02, 0.00, 0.00, 0.00
24, 187500.00, 187500.00, -28427.71, 187500.00, -187500.02, 187500.00, -187500.02, -187500.02, 0.00, 0.00, 0.00
25, 187500.00, 187500.00, -28381.95, 187500.00, -187500.02, 187500.00, -187500.02, -187500.02, 0.00, 0.00, 0.00
26, 187500.00, 187500.00, -28409.16, 187500.00, -187500.02, 187500.00, -187500.02, -187500.02, 0.00, 0.00, 0.00
27, 187500.00, 187500.00, -28420.40, 187500.00, -187500.02, 187500.00, -187500.02, -187500.02, 0.00, 0.00, 0.00
28, 187500.00, 187500.00, -28421.85, 187500.00, -187500.02, 187500.00, -187500.02, -187500.02, 0.00, 0.00, 0.00
29, 187500.00, 187500.00, -28448.07, 187500.00, -187500.02, 187500.00, -187500.02, -187500.02, 0.00, 0.51, -0.51
30, 187500.00, 187500.00, -28450.95, 187500.00, -187500.02, 187500.00, -187500.02, -187500.02, 0.00, 0.00, 0.00
31, 187500.00, 187500.00, -28442.84, 187500.00, -187500.02, 187500.00, -187500.02, -187500.02, 0.00, 0.00, 0.00
32, 187500.00, 187500.00, -28448.38, 187500.00, -187500.02, 187500.00, -187500.02, -187500.02, 0.00, 0.00, 0.00
33, 187500.00, 187500.00, -28476.50, 187500.00, -187500.02, 187500.00, -187500.02, -187500.02, 0.00, 0.00, 0.00
34, 187500.00, 187500.00, -28464.88, 187500.00, -187500.02, 187500.00, -187500.02, -187500.02, 0.00, 0.00, 0.00
35, 187500.00, 187500.00, -28451.96, 187500.00, -187500.02, 187500.00, -187500.02, -187500.02, 0.00, 0.00, 0.00
36, 187500.00, 187500.00, -28428.20, 187500.00, -187500.02, 187500.00, -187500.02, -187500.02, 0.00, 0.00, 0.00
37, 187500.00, 187500.00, -28458.78, 187500.00, -187500.02, 187500.00, -187500.02, -187500.02, 0.00, 0.00, 0.00
38, 187500.00, 187500.00, -28497.47, 187500.00, -187500.02, 187500.00, -187500.02, -187500.02, 0.00, 0.00, 0.00
