%OpenBCI Raw EEG Data
%
%Sample Rate = 250.0 Hz
%First Column = SampleIndex
%Other Columns = EEG data in microvolts followed by Accel Data (in G) interleaved with Aux Data
0, -187500.02, -187500.02, -141.13, -187500.02, -187500.02, -187500.02, -187500.02, -187500.02, -0.02, 0.01, 1.04
1, -187500.02, -187500.02, -150.45, -187500.02, -187500.02, -187500.02, -187500.02, -187500.02, 0.00, 0.00, 0.00
2, -187500.02, -187500.02, -162.97, -187500.02, -187500.02, -187500.02, -187500.02, -187500.02, 0.00, 0.00, 0.00
3, -187500.02, -187500.02, -157.00, -187500.02, -187500.02, -187500.02, -187500.02, -187500.02, 0.00, 0.00, 0.00
4, -187500.02, -187500.02, -151.21, -187500.02, -187500.02, -187500.02, -187500.02, -187500.02, 0.00, 0.00, 0.00
5, -187500.02, -187500.02, -180.22, -187500.02, -187500.02, -187500.02, -187500.02, -187500.02, 0.00, 0.00, 0.00
6, -187500.02, -187500.02, -151.81, -187500.02, -187500.02, -187500.02, -187500.02, -187500.02, 0.00, 0.00, 0.00
7, -187500.02, -187500.02, -124.66, -187500.02, -187500.02, -187500.02, -187500.02, -187500.02, -0.04, 0.02, 1.02
8, -187500.02, -187500.02, -122.40, -187500.02, -187500.02, -187500.02, -187500.02, -187500.02, 0.00, 0.00, 0.00
9, -187500.02, -187500.02, -125.64, -187500.02, -187500.02, -187500.02, -187500.02, -187500.02, 0.00, 0.00, 0.00
10, -187500.02, -187500.02, -139.99, -187500.02, -187500.02, -187500.02, -187500.02, -187500.02, 0.00, 0.00, 0.00
11, -187500.02, -187500.02, -143.68, -187500.02, -187500.02, -187500.02, -187500.02, -187500.02, 0.00, 0.00, 0.00
12, -187500.02, -187500.02, -130.87, -187500.02, -187500.02, -187500.02, -187500.02, -187500.02, 0.00, 0.00, 0.00
13, -187500.02, -187500.02, -138.38, -187500.02, -187500.02, -187500.02, -187500.02, -187500.02, 0.00, 0.00, 0.00
14, -187500.02, -187500.02, -140.01, -187500.02, -187500.02, -187500.02, -187500.02, -187500.02, 0.00, 0.00, 0.00
15, -187500.02, -187500.02, -133.46, -187500.02, -187500.02, -187500.02, -187500.02, -187500.02, 0.00, 0.00, 0.00
16, -187500.02, -187500.02, -134.51, -187500.02, -187500.02, -187500.02, -187500.02, -187500.02, 0.00, 0.00, 0.00
17, -187500.02, -187500.02, -149.62, -187500.02, -187500.02, -187500.02, -187500.02, -187500.02, -0.03, 0.01, 1.03
18, -187500.02, -187500.02, -114.08, -187500.02, -187500.02, -187500.02, -187500.02, -187500.02, 0.00, 0.00, 0.00
19, -187500.02, -187500.02, -120.39, -187500.02, -187500.02, -187500.02, -187500.02, -187500.02, 0.00, 0.00, 0.00
20, -187500.02, -187500.02, -112.97, -187500.02, -187500.02, -187500.02, -187500.02, -187500.02, 0.00, 0.00, 0.00
21, -187500.02, -187500.02, -118.29, -187500.02, -187500.02, -187500.02, -187500.02, -187500.02, 0.00, 0.00, 0.00
22, -187500.02, -187500.02, -143.92, -187500.02, -187500.02, -187500.02, -187500.02, -187500.02, 0.00, 0.00, 0.00
23, -187500.02, -187500.02, -127.81, -187500.02, -187500.02, -187500.02, -187500.02, -187500.02, 0.00, 0.00, 0.00
24, -187500.02, -187500.02, -116.47, -187500.02, -187500.02, -187500.02, -187500.02, -187500.02, 0.00, 0.00, 0.00
25, -187500.02, -187500.02, -103.31, -187500.02, -187500.02, -187500.02, -187500.02, -187500.02, 0.00, 0.00, 0.00
26, -187500.02, -187500.02, -114.82, -187500.02, -187500.02, -187500.02, -187500.02, -187500.02, 0.00, 0.00, 0.00
27, -187500.02, -187500.02, -138.04, -187500.02, -187500.02, -187500.02, -187500.02, -187500.02, -0.03, 0.01, 1.02
28, -187500.02, -187500.02, -124.95, -187500.02, -187500.02, -187500.02, -187500.02, -187500.02, 0.00, 0.00, 0.00
29, -187500.02, -187500.02, -88.00, -187500.02, -187500.02, -187500.02, -187500.02, -187500.02, 0.00, 0.00, 0.00
30, -187500.02, -187500.02, -91.87, -187500.02, -187500.02, -187500.02, -187500.02, -187500.02, 0.00, 0.00, 0.00
31, -187500.02, -187500.02, -114.75, -187500.02, -187500.02, -187500.02, -187500.02, -187500.02, 0.00, 0.00, 0.00
32, -187500.02, -187500.02, -119.94, -187500.02, -187500.02, -187500.02, -187500.02, -187500.02, 0.00, 0.00, 0.00
33, -187500.02, -187500.02, -82.30, -187500.02, -187500.02, -187500.02, -187500.02, -187500.02, 0.00, 0.00, 0.00
34, -187500.02, -187500.02, -91.28, -187500.02, -187500.02, -187500.02, -187500.02, -187500.02, 0.00, 0.00, 0.00
35, -187500.02, -187500.02, -117.19, -187500.02, -187500.02, -187500.02, -187500.02, -187500.02, 0.00, 0.00, 0.00
36, -187500.02, -187500.02, -117.95, -187500.02, -187500.02, -187500.02, -187500.02, -187500.02, 0.00, 0.00, 0.00
37, -187500.02, -187500.02, -68.93, -187500.02, -187500.02, -187500.02, -187500.02, -187500.02, -0.02, 0.01, 1.02
38, -187500.02, -187500.02, -77.16, -187500.02, -187500.02, -187500.02, -187500.02, -187500.02, 0.00, 0.00, 0.00
39, -187500.02, -187500.02, -72.62, -187500.02, -187500.02, -187500.02, -187500.02, -187500.02, 0.00, 0.00, 0.00
40, -187500.02, -187500.02, -76.51, -187500.02, -187500.02, -187500.02, -187500.02, -187500.02, 0.00, 0.00, 0.00
41, -187500.02, -187500.02, -53.53, -187500.02, -187500.02, -187500.02, -187500.02, -187500.02, 0.00, 0.00, 0.00
42, -187500.02, -187500.02, -59.90, -187500.02, -187500.02, -187500.02, -187500.02, -187500.02, 0.00, 0.00, 0.00
43, -187500.02, -187500.02, -80.73, -187500.02, -187500.02, -187500.02, -187500.02, -187500.02, 0.00, 0.00, 0.00
44, -187500.02, -187500.02, -78.95, -187500.02, -187500.02, -187500.02, -187500.02, -187500.02, 0.00, 0.00, 0.00
45, -187500.02, -187500.02, -70.94, -187500.02, -187500.02, -187500.02, -187500.02, -187500.02, 0.00, 0.00, 0.00
46, -187500.02, -187500.02, -53.64, -187500.02, -187500.02, -187500.02, -187500.02, -187500.02, 0.00, 0.00, 0.00
47, -187500.02, -187500.02, -27.14, -187500.02, -187500.02, -187500.02, -187500.02, -187500.02, -0.02, 0.01, 1.03
48, -187500.02, -187500.02, -45.66, -187500.02, -187500.02, -187500.02, -187500.02, -187500.02, 0.00, 0.00, 0.00
49, -187500.02, -187500.02, -48.37, -187500.02, -187500.02, -187500.02, -187500.02, -187500.02, 0.00, 0.00, 0.00
50, -187500.02, -187500.02, -44.12, -187500.02, -187500.02, -187500.02, -187500.02, -187500.02, 0.00, 0.00, 0.00
51, -187500.02, -187500.02, -37.75, -187500.02, -187500.02, -187500.02, -187500.02, -187500.02, 0.00, 0.00, 0.00
52, -187500.02, -187500.02, -62.00, -187500.02, -187500.02, -187500.02, -187500.02, -187500.02, 0.00, 0.00, 0.00
53, -187500.02, -187500.02, -38.13, -187500.02, -187500.02, -187500.02, -187500.02, -187500.02, 0.00, 0.00, 0.00
54, -187500.02, -187500.02, 1.16, -187500.02, -187500.02, -187500.02, -187500.02, -187500.02, 0.00, 0.00, 0.00
55, -187500.02, -187500.02, -19.65, -187500.02, -187500.02, -187500.02, -187500.02, -187500.02, 0.00, 0.00, 0.00
56, -187500.02, -187500.02, -25.91, -187500.02, -187500.02, -187500.02, -187500.02, -187500.02, 0.00, 0.00, 0.00
57, -187500.02, -187500.02, -34.58, -187500.02, -187500.02, -187500.02, -187500.02, -187500.02, 0.00, 0.00, 0.00
58, -187500.02, -187500.02, -24.59, -187500.02, -187500.02, -187500.02, -187500.02, -187500.02, -0.02, 0.01, 1.03
59, -187500.02, -187500.02, -24.12, -187500.02, -187500.02, -187500.02, -187500.02, -187500.02, 0.00, 0.00, 0.00
60, -187500.02, -187500.02, 5.45, -187500.02, -187500.02, -187500.02, -187500.02, -187500.02, 0.00, 0.00, 0.00
61, -187500.02, -187500.02, 2.91, -187500.02, -187500.02, -187500.02, -187500.02, -187500.02, 0.00, 0.00, 0.00
62, -187500.02, -187500.02, 21.21, -187500.02, -187500.02, -187500.02, -187500.02, -187500.02, 0.00, 0.00, 0.00
63, -187500.02, -187500.02, 37.13, -187500.02, -187500.02, -187500.02, -187500.02, -187500.02, 0.00, 0.00, 0.00
64, -187500.02, -187500.02, 22.93, -187500.02, -187500.02, -187500.02, -187500.02, -187500.02, 0.00, 0.00, 0.00
65, -187500.02, -187500.02, 8.20, -187500.02, -187500.02, -187500.02, -187500.02, -187500.02, 0.00, 0.00, 0.00
66, -187500.02, -187500.02, 27.11, -187500.02, -187500.02, -187500.02, -187500.02, -187500.02, 0.00, 0.00, 0.00
67, -187500.02, -187500.02, 41.08, -187500.02, -187500.02, -187500.02, -187500.02, -187500.02, 0.00, 0.00, 0.00
68, -187500.02, -187500.02, 23.92, -187500.02, -187500.02, -187500.02, -187500.02, -187500.02, -0.02, 0.01, 1.03
69, -187500.02, -187500.02, 19.71, -187500.02, -187500.02, -187500.02, -187500.02, -187500.02, 0.00, 0.00, 0.00
70, -187500.02, -187500.02, 35.79, -187500.02, -187500.02, -187500.02, -187500.02, -187500.02, 0.00, 0.00, 0.00
71, -187500.02, -187500.02, 59.52, -187500.02, -187500.02, -187500.02, -187500.02, -187500.02, 0.00, 0.00, 0.00
72, -187500.02, -187500.02, 36.79, -187500.02, -187500.02, -187500.02, -187500.02, -187500.02, 0.00, 0.00, 0.00
73, -187500.02, -187500.02, -18.82, -187500.02, -187500.02, -187500.02, -187500.02, -187500.02, 0.00, 0.00, 0.00
74, -187500.02, -187500.02, -22.89, -187500.02, -187500.02, -187500.02, -187500.02, -187500.02, 0.00, 0.00, 0.00
75, -187500.02, -187500.02, 77.23, -187500.02, -187500.02, -187500.02, -187500.02, -187500.02, 0.00, 0.00, 0.00
76, -187500.02, -187500.02, 128.95, -187500.02, -187500.02, -187500.02, -187500.02, -187500.02, 0.00, 0.00, 0.00
77, -187500.02, -187500.02, 72.06, -187500.02, -187500.02, -187500.02, -187500.02, -187500.02, 0.00, 0.00, 0.00
78, -187500.02, -187500.02, 43.83, -187500.02, -187500.02, -187500.02, -187500.02, -187500.02, -0.02, 0.01, 1.03
79, -187500.02, -187500.02, 67.01, -187500.02, -187500.02, -187500.02, -187500.02, -187500.02, 0.00, 0.00, 0.00
80, -187500.02, -187500.02, 18.64, -187500.02, -187500.02, -187500.02, -187500.02, -187500.02, 0.00, 0.00, 0.00
81, -187500.02, -187500.02, 30.76, -187500.02, -187500.02, -187500.02, -187500.02, -187500.02, 0.00, 0.00, 0.00
82, -187500.02, -187500.02, 104.78, -187500.02, -187500.02, -187500.02, -187500.02, -187500.02, 0.00, 0.00, 0.00
83, -187500.02, -187500.02, 98.37, -187500.02, -187500.02, -187500.02, -187500.02, -187500.02, 0.00, 0.00, 0.00
84, -187500.02, -187500.02, -6.62, -187500.02, -187500.02, -187500.02, -187500.02, -187500.02, 0.00, 0.00, 0.00
85, -187500.02, -187500.02, -45.17, -187500.02, -187500.02, -187500.02, -187500.02, -187500.02, 0.00, 0.00, 0.00
86, -187500.02, -187500.02, 15.09, -187500.02, -187500.02, -187500.02, -187500.02, -187500.02, 0.00, 0.00, 0.00
87, -187500.02, -187500.02, 180.96, -187500.02, -187500.02, -187500.02, -187500.02, -187500.02, 0.00, 0.00, 0.00
88, -187500.02, -187500.02, 235.57, -187500.02, -187500.02, -187500.02, -187500.02, -187500.02, -0.02, 0.01, 1.03
89, -187500.02, -187500.02, 154.05, -187500.02, -187500.02, -187500.02, -187500.02, -187500.02, 0.00, 0.00, 0.00
90, -187500.02, -187500.02, 136.64, -187500.02, -187500.02, -187500.02, -187500.02, -187500.02, 0.00, 0.00, 0.00
91, -187500.02, -187500.02, 150.94, -187500.02, -187500.02, -187500.02, -187500.02, -187500.02, 0.00, 0.00, 0.00
92, -187500.02, -187500.02, 144.26, -187500.02, -187500.02, -187500.02, -187500.02, -187500.02, 0.00, 0.00, 0.00
93, -187500.02, -187500.02, 24.83, -187500.02, -187500.02, -187500.02, -187500.02, -187500.02, 0.00, 0.00, 0.00
94, -187500.02, -187500.02, -186.84, -187500.02, -187500.02, -187500.02, -187500.02, -187500.02, 0.00, 0.00, 0.00
95, -187500.02, -187500.02, -44.95, -187500.02, -187500.02, -187500.02, -187500.02, -187500.02, 0.00, 0.00, 0.00
96, -187500.02, -187500.02, 284.87, -187500.02, -187500.02, -187500.02, -187500.02, -187500.02, 0.00, 0.00, 0.00
97, -187500.02, -187500.02, 277.09, -187500.02, -187500.02, -187500.02, -187500.02, -187500.02, 0.00, 0.00, 0.00
98, -187500.02, -187500.02, 194.57, -187500.02, -187500.02, -187500.02, -187500.02, -187500.02, -0.01, 0.01, 1.03
99, -187500.02, -187500.02, 165.96, -187500.02, -187500.02, -187500.02, -187500.02, -187500.02, 0.00, 0.00, 0.00
100, -187500.02, -187500.02, 165.16, -187500.02, -187500.02, -187500.02, -187500.02, -187500.02, 0.00, 0.00, 0.00
101, -187500.02, -187500.02, 145.64, -187500.02, -187500.02, -187500.02, -187500.02, -187500.02, 0.00, 0.00, 0.00
102, -187500.02, -187500.02, 129.62, -187500.02, -187500.02, -187500.02, -187500.02, -187500.02, 0.00, 0.00, 0.00
103, -187500.02, -187500.02, 126.80, -187500.02, -187500.02, -187500.02, -187500.02, -187500.02, 0.00, 0.00, 0.00
104, -187500.02, -187500.02, 138.80, -187500.02, -187500.02, -187500.02, -187500.02, -187500.02, 0.00, 0.00, 0.00
105, -187500.02, -187500.02, 132.43, -187500.02, -187500.02, -187500.02, -187500.02, -187500.02, 0.00, 0.00, 0.00
106, -187500.02, -187500.02, 122.76, -187500.02, -187500.02, -187500.02, -187500.02, -187500.02, 0.00, 0.00, 0.00
107, -187500.02, -187500.02, 127.27, -187500.02, -187500.02, -187500.02, -187500.02, -187500.02, 0.00, 0.00, 0.00
108, -187500.02, -187500.02, 139.18, -187500.02, -187500.02, -187500.02, -187500.02, -187500.02, -0.01, 0.01, 1.04
109, -187500.02, -187500.02, 129.75, -187500.02, -187500.02, -187500.02, -187500.02, -187500.02, 0.00, 0.00, 0.00
110, -187500.02, -187500.02, 134.31, -187500.02, -187500.02, -187500.02, -187500.02, -187500.02, 0.00, 0.00, 0.00
111, -187500.02, -187500.02, 114.73, -187500.02, -187500.02, -187500.02, -187500.02, -187500.02, 0.00, 0.00, 0.00
112, -187500.02, -187500.02, 105.63, -187500.02, -187500.02, -187500.02, -187500.02, -187500.02, 0.00, 0.00, 0.00
113, -187500.02, -187500.02, 79.77, -187500.02, -187500.02, -187500.02, -187500.02, -187500.02, 0.00, 0.00, 0.00
114, -187500.02, -187500.02, 61.78, -187500.02, -187500.02, -187500.02, -187500.02, -187500.02, 0.00, 0.00, 0.00
115, -187500.02, -187500.02, 46.67, -187500.02, -187500.02, -187500.02, -187500.02, -187500.02, 0.00, 0.00, 0.00
116, -187500.02, -187500.02, 48.37, -187500.02, -187500.02, -187500.02, -187500.02, -187500.02, 0.00, 0.00, 0.00
117, -187500.02, -187500.02, 161.54, -187500.02, -187500.02, -187500.02, -187500.02, -187500.02, 0.00, 0.00, 0.00
118, -187500.02, -187500.02, 332.35, -187500.02, -187500.02, -187500.02, -187500.02, -187500.02, -0.02, 0.01, 1.03
119, -187500.02, -187500.02, 235.50, -187500.02, -187500.02, -187500.02, -187500.02, -187500.02, 0.00, 0.00, 0.00
120, -187500.02, -187500.02, 201.55, -187500.02, -187500.02, -187500.02, -187500.02, -187500.02, 0.00, 0.00, 0.00
121, -187500.02, -187500.02, 204.47, -187500.02, -187500.02, -187500.02, -187500.02, -187500.02, 0.00, 0.00, 0.00
122, -187500.02, -187500.02, 186.53, -187500.02, -187500.02, -187500.02, -187500.02, -187500.02, 0.00, 0.00, 0.00
123, -187500.02, -187500.02, 168.82, -187500.02, -187500.02, -187500.02, -187500.02, -187500.02, 0.00, 0.00, 0.00
124, -187500.02, -187500.02, 166.70, -187500.02, -187500.02, -187500.02, -187500.02, -187500.02, 0.00, 0.00, 0.00
125, -187500.02, -187500.02, 171.19, -187500.02, -187500.02, -187500.02, -187500.02, -187500.02, 0.00, 0.00, 0.00
126, -187500.02, -187500.02, 166.99, -187500.02, -187500.02, -187500.02, -187500.02, -187500.02, 0.00, 0.00, 0.00
127, -187500.02, -187500.02, 144.93, -187500.02, -187500.02, -187500.02, -187500.02, -187500.02, 0.00, 0.00, 0.00
128, -187500.02, -187500.02, 142.58, -187500.02, -187500.02, -187500.02, -187500.02, -187500.02, 0.00, 0.00, 0.00
129, -187500.02, -187500.02, 178.43, -187500.02, -187500.02, -187500.02, -187500.02, -187500.02, -0.02, 0.00, 1.02
130, -187500.02, -187500.02, 173.87, -187500.02, -187500.02, -187500.02, -187500.02, -187500.02, 0.00, 0.00, 0.00
131, -187500.02, -187500.02, 167.55, -187500.02, -187500.02, -187500.02, -187500.02, -187500.02, 0.00, 0.00, 0.00
132, -187500.02, -187500.02, 161.71, -187500.02, -187500.02, -187500.02, -187500.02, -187500.02, 0.00, 0.00, 0.00
133, -187500.02, -187500.02, 177.20, -187500.02, -187500.02, -187500.02, -187500.02, -187500.02, 0.00, 0.00, 0.00
134, -187500.02, -187500.02, 185.30, -187500.02, -187500.02, -187500.02, -187500.02, -187500.02, 0.00, 0.00, 0.00
135, -187500.02, -187500.02, 185.32, -187500.02, -187500.02, -187500.02, -187500.02, -187500.02, 0.00, 0.00, 0.00
136, -187500.02, -187500.02, 178.34, -187500.02, -187500.02, -187500.02, -187500.02, -187500.02, 0.00, 0.00, 0.00
137, -187500.02, -187500.02, 192.87, -187500.02, -187500.02, -187500.02, -187500.02, -187500.02, 0.00, 0.00, 0.00
138, -187500.02, -187500.02, 219.90, -187500.02, -187500.02, -187500.02, -187500.02, -187500.02, 0.00, 0.00, 0.00
139, -187500.02, -187500.02, 205.88, -187500.02, -187500.02, -187500.02, -187500.02, -187500.02, -0.02, 0.01, 1.02
140, -187500.02, -187500.02, 198.68, -187500.02, -187500.02, -187500.02, -187500.02, -187500.02, 0.00, 0.00, 0.00
141, -187500.02, -187500.02, 212.57, -187500.02, -187500.02, -187500.02, -187500.02, -187500.02, 0.00, 0.00, 0.00
142, -187500.02, -187500.02, 225.91, -187500.02, -187500.02, -187500.02, -187500.02, -187500.02, 0.00, 0.00, 0.00
143, -187500.02, -187500.02, 217.88, -187500.02, -187500.02, -187500.02, -187500.02, -187500.02, 0.00, 0.00, 0.00
144, -187500.02, -187500.02, 212.45, -187500.02, -187500.02, -187500.02, -187500.02, -187500.02, 0.00, 0.00, 0.00
145, -187500.02, -187500.02, 194.24, -187500.02, -187500.02, -187500.02, -187500.02, -187500.02, 0.00, 0.00, 0.00
146, -187500.02, -187500.02, 227.79, -187500.02, -187500.02, -187500.02, -187500.02, -187500.02, 0.00, 0.00, 0.00
147, -187500.02, -187500.02, 228.32, -187500.02, -187500.02, -187500.02, -187500.02, -187500.02, 0.00, 0.00, 0.00
148, -187500.02, -187500.02, 206.13, -187500.02, -187500.02, -187500.02, -187500.02, -187500.02, 0.00, 0.00, 0.00
149, -187500.02, -187500.02, 206.04, -187500.02, -187500.02, -187500.02, -187500.02, -187500.02, -0.02, 0.01, 1.03
150, -187500.02, -187500.02, 215.09, -187500.02, -187500.02, -187500.02, -187500.02, -187500.02, 0.00, 0.00, 0.00
151, -187500.02, -187500.02, 213.66, -187500.02, -187500.02, -187500.02, -187500.02, -187500.02, 0.00, 0.00, 0.00
152, -187500.02, -187500.02, 201.97, -187500.02, -187500.02, -187500.02, -187500.02, -187500.02, 0.00, 0.00, 0.00
153, -187500.02, -187500.02, 198.62, -187500.02, -187500.02, -187500.02, -187500.02, -187500.02, 0.00, 0.00, 0.00
154, -187500.02, -187500.02, 222.65, -187500.02, -187500.02, -187500.02, -187500.02, -187500.02, 0.00, 0.00, 0.00
155, -187500.02, -187500.02, 232.12, -187500.02, -187500.02, -187500.02, -187500.02, -187500.02, 0.00, 0.00, 0.00
156, -187500.02, -187500.02, 228.88, -187500.02, -187500.02, -187500.02, -187500.02, -187500.02, 0.00, 0.00, 0.00
157, -187500.02, -187500.02, 212.14, -187500.02, -187500.02, -187500.02, -187500.02, -187500.02, 0.00, 0.00, 0.00
158, -187500.02, -187500.02, 233.20, -187500.02, -187500.02, -187500.02, -187500.02, -187500.02, 0.00, 0.00, 0.00
159, -187500.02, -187500.02, 238.34, -187500.02, -187500.02, -187500.02, -187500.02, -187500.02, -0.02, 0.01, 1.03
160, -187500.02, -187500.02, 224.12, -187500.02, -187500.02, -187500.02, -187500.02, -187500.02, 0.00, 0.00, 0.00
161, -187500.02, -187500.02, 223.65, -187500.02, -187500.02, -187500.02, -187500.02, -187500.02, 0.00, 0.00, 0.00
162, -187500.02, -187500.02, 231.81, -187500.02, -187500.02, -187500.02, -187500.02, -187500.02, 0.00, 0.00, 0.00
163, -187500.02, -187500.02, 241.06, -187500.02, -187500.02, -187500.02, -187500.02, -187500.02, 0.00, 0.00, 0.00
164, -187500.02, -187500.02, 240.24, -187500.02, -187500.02, -187500.02, -187500.02, -187500.02, 0.00, 0.00, 0.00
165, -187500.02, -187500.02, 234.78, -187500.02, -187500.02, -187500.02, -187500.02, -187500.02, 0.00, 0.00, 0.00
166, -187500.02, -187500.02, 240.80, -187500.02, -187500.02, -187500.02, -187500.02, -187500.02, 0.00, 0.00, 0.00
167, -187500.02, -187500.02, 255.28, -187500.02, -187500.02, -187500.02, -187500.02, -187500.02, 0.00, 0.00, 0.00
168, -187500.02, -187500.02, 245.85, -187500.02, -187500.02, -187500.02, -187500.02, -187500.02, 0.00, 0.00, 0.00
169, -187500.02, -187500.02, 241.42, -187500.02, -187500.02, -187500.02, -187500.02, -187500.02, -0.02, 0.01, 1.02
170, -187500.02, -187500.02, 244.86, -187500.02, -187500.02, -187500.02, -187500.02, -187500.02, 0.00, 0.00, 0.00
171, -187500.02, -187500.02, 264.60, -187500.02, -187500.02, -187500.02, -187500.02, -187500.02, 0.00, 0.00, 0.00
172, -187500.02, -187500.02, 270.32, -187500.02, -187500.02, -187500.02, -187500.02, -187500.02, 0.00, 0.00, 0.00
173, -187500.02, -187500.02, 259.91, -187500.02, -187500.02, -187500.02, -187500.02, -187500.02, 0.00, 0.00, 0.00
174, -187500.02, -187500.02, 267.84, -187500.02, -187500.02, -187500.02, -187500.02, -187500.02, 0.00, 0.00, 0.00
175, -187500.02, -187500.02, 281.32, -187500.02, -187500.02, -187500.02, -187500.02, -187500.02, 0.00, 0.00, 0.00
176, -187500.02, -187500.02, 280.27, -187500.02, -187500.02, -187500.02, -187500.02, -187500.02, 0.00, 0.00, 0.00
177, -187500.02, -187500.02, 273.14, -187500.02, -187500.02, -187500.02, -187500.02, -187500.02, 0.00, 0.00, 0.00
178, -187500.02, -187500.02, 269.47, -187500.02, -187500.02, -187500.02, -187500.02, -187500.02, 0.00, 0.00, 0.00
179, -187500.02, -187500.02, 286.17, -187500.02, -187500.02, -187500.02, -187500.02, -187500.02, -0.02, 0.01, 1.03
180, -187500.02, -187500.02, 288.09, -187500.02, -187500.02, -187500.02, -187500.02, -187500.02, 0.00, 0.00, 0.00
181, -187500.02, -187500.02, 281.77, -187500.02, -187500.02, -187500.02, -187500.02, -187500.02, 0.00, 0.00, 0.00
182, -187500.02, -187500.02, 275.69, -187500.02, -187500.02, -187500.02, -187500.02, -187500.02, 0.00, 0.00, 0.00
183, -187500.02, -187500.02, 284.38, -187500.02, -187500.02, -187500.02, -187500.02, -187500.02, 0.00, 0.00, 0.00
184, -187500.02, -187500.02, 296.47, -187500.02, -187500.02, -187500.02, -187500.02, -187500.02, 0.00, 0.00, 0.00
185, -187500.02, -187500.02, 280.07, -187500.02, -187500.02, -187500.02, -187500.02, -187500.02, 0.00, 0.00, 0.00
186, -187500.02, -187500.02, 275.82, -187500.02, -187500.02, -187500.02, -187500.02, -187500.02, 0.00, 0.00, 0.00
187, -187500.02, -187500.02, 292.67, -187500.02, -187500.02, -187500.02, -187500.02, -187500.02, 0.00, 0.00, 0.00
188, -187500.02, -187500.02, 295.27, -187500.02, -187500.02, -187500.02, -187500.02, -187500.02, 0.00, 0.00, 0.00
189, -187500.02, -187500.02, 284.90, -187500.02, -187500.02, -187500.02, -187500.02, -187500.02, 0.00, 0.00, 0.00
190, -187500.02, -187500.02, 282.70, -187500.02, -187500.02, -187500.02, -187500.02, -187500.02, -0.02, 0.01, 1.03
191, -187500.02, -187500.02, 291.44, -187500.02, -187500.02, -187500.02, -187500.02, -187500.02, 0.00, 0.00, 0.00
192, -187500.02, -187500.02, 303.42, -187500.02, -187500.02, -187500.02, -187500.02, -187500.02, 0.00, 0.00, 0.00
193, -187500.02, -187500.02, 301.77, -187500.02, -187500.02, -187500.02, -187500.02, -187500.02, 0.00, 0.00, 0.00
194, -187500.02, -187500.02, 285.19, -187500.02, -187500.02, -187500.02, -187500.02, -187500.02, 0.00, 0.00, 0.00
195, -187500.02, -187500.02, 289.41, -187500.02, -187500.02, -187500.02, -187500.02, -187500.02, 0.00, 0.00, 0.00
196, -187500.02, -187500.02, 308.66, -187500.02, -187500.02, -187500.02, -187500.02, -187500.02, 0.00, 0.00, 0.00
197, -187500.02, -187500.02, 302.33, -187500.02, -187500.02, -187500.02, -187500.02, -187500.02, 0.00, 0.00, 0.00
198, -187500.02, -187500.02, 281.74, -187500.02, -187500.02, -187500.02, -187500.02, -187500.02, 0.00, 0.00, 0.00
199, -187500.02, -187500.02, 289.57, -187500.02, -187500.02, -187500.02, -187500.02, -187500.02, 0.00, 0.00, 0.00
200, -187500.02, -187500.02, 313.80, -187500.02, -187500.02, -187500.02, -187500.02, -187500.02, -0.02, 0.01, 1.03
201, -187500.02, -187500.02, 303.04, -187500.02, -187500.02, -187500.02, -187500.02, -187500.02, 0.00, 0.00, 0.00
202, -187500.02, -187500.02, 295.98, -187500.02, -187500.02, -187500.02, -187500.02, -187500.02, 0.00, 0.00, 0.00
203, -187500.02, -187500.02, 292.34, -187500.02, -187500.02, -187500.02, -187500.02, -187500.02, 0.00, 0.00, 0.00
204, -187500.02, -187500.02, 310.20, -187500.02, -187500.02, -187500.02, -187500.02, -187500.02, 0.00, 0.00, 0.00
205, -187500.02, -187500.02, 319.32, -187500.02, -187500.02, -187500.02, -187500.02, -187500.02, 0.00, 0.00, 0.00
206, -187500.02, -187500.02, 310.87, -187500.02, -187500.02, -187500.02, -187500.02, -187500.02, 0.00, 0.00, 0.00
207, -187500.02, -187500.02, 291.53, -187500.02, -187500.02, -187500.02, -187500.02, -187500.02, 0.00, 0.00, 0.00
208, -187500.02, -187500.02, 316.59, -187500.02, -187500.02, -187500.02, -187500.02, -187500.02, 0.00, 0.00, 0.00
209, -187500.02, -187500.02, 319.41, -187500.02, -187500.02, -187500.02, -187500.02, -187500.02, 0.00, 0.00, 0.00
210, -187500.02, -187500.02, 305.95, -187500.02, -187500.02, -187500.02, -187500.02, -187500.02, -0.02, 0.01, 1.03
211, -187500.02, -187500.02, 297.90, -187500.02, -187500.02, -187500.02, -187500.02, -187500.02, 0.00, 0.00, 0.00
212, -187500.02, -187500.02, 310.00, -187500.02, -187500.02, -187500.02, -187500.02, -187500.02, 0.00, 0.00, 0.00
213, -187500.02, -187500.02, 330.31, -187500.02, -187500.02, -187500.02, -187500.02, -187500.02, 0.00, 0.00, 0.00
214, -187500.02, -187500.02, 320.50, -187500.02, -187500.02, -187500.02, -187500.02, -187500.02, 0.00, 0.00, 0.00
215, -187500.02, -187500.02, 307.69, -187500.02, -187500.02, -187500.02, -187500.02, -187500.02, 0.00, 0.00, 0.00
216, -187500.02, -187500.02, 310.76, -187500.02, -187500.02, -187500.02, -187500.02, -187500.02, 0.00, 0.00, 0.00
217, -187500.02, -187500.02, 319.38, -187500.02, -187500.02, -187500.02, -187500.02, -187500.02, 0.00, 0.00, 0.00
218, -187500.02, -187500.02, 315.94, -187500.02, -187500.02, -187500.02, -187500.02, -187500.02, 0.00, 0.00, 0.00
219, -187500.02, -187500.02, 301.15, -187500.02, -187500.02, -187500.02, -187500.02, -187500.02, 0.00, 0.00, 0.00
220, -187500.02, -187500.02, 305.30, -187500.02, -187500.02, -187500.02, -187500.02, -187500.02, -0.02, 0.01, 1.02
221, -187500.02, -187500.02, 328.44, -187500.02, -187500.02, -187500.02, -187500.02, -187500.02, 0.00, 0.00, 0.00
222, -187500.02, -187500.02, 325.55, -187500.02, -187500.02, -187500.02, -187500.02, -187500.02, 0.00, 0.00, 0.00
223, -187500.02, -187500.02, 314.02, -187500.02, -187500.02, -187500.02, -187500.02, -187500.02, 0.00, 0.00, 0.00
224, -187500.02, -187500.02, 307.25, -187500.02, -187500.02, -187500.02, -187500.02, -187500.02, 0.00, 0.00, 0.00
225, -187500.02, -187500.02, 320.79, -187500.02, -187500.02, -187500.02, -187500.02, -187500.02, 0.00, 0.00, 0.00
226, -187500.02, -187500.02, 321.89, -187500.02, -187500.02, -187500.02, -187500.02, -187500.02, 0.00, 0.00, 0.00
227, -187500.02, -187500.02, 312.14, -187500.02, -187500.02, -187500.02, -187500.02, -187500.02, 0.00, 0.00, 0.00
228, -187500.02, -187500.02, 309.28, -187500.02, -187500.02, -187500.02, -187500.02, -187500.02, 0.00, 0.00, 0.00
229, -187500.02, -187500.02, 331.10, -187500.02, -187500.02, -187500.02, -187500.02, -187500.02, 0.00, 0.00, 0.00
230, -187500.02, -187500.02, 333.22, -187500.02, -187500.02, -187500.02, -187500.02, -187500.02, -0.02, 0.01, 1.03
231, -187500.02, -187500.02, 320.61, -187500.02, -187500.02, -187500.02, -187500.02, -187500.02, 0.00, 0.00, 0.00
232, -187500.02, -187500.02, 312.63, -187500.02, -187500.02, -187500.02, -187500.02, -187500.02, 0.00, 0.00, 0.00
233, -187500.02, -187500.02, 324.08, -187500.02, -187500.02, -187500.02, -187500.02, -187500.02, 0.00, 0.00, 0.00
234, -187500.02, -187500.02, 337.96, -187500.02, -187500.02, -187500.02, -187500.02, -187500.02, 0.00, 0.00, 0.00
235, -187500.02, -187500.02, 324.86, -187500.02, -187500.02, -187500.02, -187500.02, -187500.02, 0.00, 0.00, 0.00
236, -187500.02, -187500.02, 315.63, -187500.02, -187500.02, -187500.02, -187500.02, -187500.02, 0.00, 0.00, 0.00
237, -187500.02, -187500.02, 326.92, -187500.02, -187500.02, -187500.02, -187500.02, -187500.02, 0.00, 0.00, 0.00
238, -187500.02, -187500.02, 341.29, -187500.02, -187500.02, -187500.02, -187500.02, -187500.02, 0.00, 0.00, 0.00
239, -187500.02, -187500.02, 343.66, -187500.02, -187500.02, -187500.02, -187500.02, -187500.02, 0.00, 0.00, 0.00
240, -187500.02, -187500.02, 333.35, -187500.02, -187500.02, -187500.02, -187500.02, -187500.02, -0.03, 0.01, 1.03
241, -187500.02, -187500.02, 336.26, -187500.02, -187500.02, -187500.02, -187500.02, -187500.02, 0.00, 0.00, 0.00
242, -187500.02, -187500.02, 346.88, -187500.02, -187500.02, -187500.02, -187500.02, -187500.02, 0.00, 0.00, 0.00
243, -187500.02, -187500.02, 344.24, -187500.02, -187500.02, -187500.02, -187500.02, -187500.02, 0.00, 0.00, 0.00
244, -187500.02, -187500.02, 338.14, -187500.02, -187500.02, -187500.02, -187500.02, -187500.02, 0.00, 0.00, 0.00
245, -187500.02, -187500.02, 344.87, -187500.02, -187500.02, -187500.02, -187500.02, -187500.02, 0.00, 0.00, 0.00
246, -187500.02, -187500.02, 362.19, -187500.02, -187500.02, -187500.02, -187500.02, -187500.02, 0.00, 0.00, 0.00
247, -187500.02, -187500.02, 356.38, -187500.02, -187500.02, -187500.02, -187500.02, -187500.02, 0.00, 0.00, 0.00
248, -187500.02, -187500.02, 345.96, -187500.02, -187500.02, -187500.02, -187500.02, -187500.02, 0.00, 0.00, 0.00
249, -187500.02, -187500.02, 350.74, -187500.02, -187500.02, -187500.02, -187500.02, -187500.02, 0.00, 0.00, 0.00
250, -187500.02, -187500.02, 367.86, -187500.02, -187500.02, -187500.02, -187500.02, -187500.02, 0.00, 0.00, 0.00
251, -187500.02, -187500.02, 371.55, -187500.02, -187500.02, -187500.02, -187500.02, -187500.02, -0.02, 0.01, 1.04
252, -187500.02, -187500.02, 363.28, -187500.02, -187500.02, -187500.02, -187500.02, -187500.02, 0.00, 0.00, 0.00
253, -187500.02, -187500.02, 364.13, -187500.02, -187500.02, -187500.02, -187500.02, -187500.02, 0.00, 0.00, 0.00
254, -187500.02, -187500.02, 376.27, -187500.02, -187500.02, -187500.02, -187500.02, -187500.02, 0.00, 0.00, 0.00
255, -187500.02, -187500.02, 384.65, -187500.02, -187500.02, -187500.02, -187500.02, -187500.02, 0.00, 0.00, 0.00
0, -187500.02, -187500.02, 378.42, -187500.02, -187500.02, -187500.02, -187500.02, -187500.02, 0.00, 0.00, 0.00
1, -187500.02, -187500.02, 376.43, -187500.02, -187500.02, -187500.02, -187500.02, -187500.02, 0.00, 0.00, 0.00
2, -187500.02, -187500.02, 393.10, -187500.02, -187500.02, -187500.02, -187500.02, -187500.02, 0.00, 0.00, 0.00
3, -187500.02, -187500.02, 399.72, -187500.02, -187500.02, -187500.02, -187500.02, -187500.02, 0.00, 0.00, 0.00
4, -187500.02, -187500.02, 392.90, -187500.02, -187500.02, -187500.02, -187500.02, -187500.02, 0.00, 0.00, 0.00
5, -187500.02, -187500.02, 384.45, -187500.02, -187500.02, -187500.02, -187500.02, -187500.02, -0.02, 0.01, 1.03
6, -187500.02, -187500.02, 396.68, -187500.02, -187500.02, -187500.02, -187500.02, -187500.02, 0.00, 0.00, 0.00
7, -187500.02, -187500.02, 409.19, -187500.02, -187500.02, -187500.02, -187500.02, -187500.02, 0.00, 0.00, 0.00
8, -187500.02, -187500.02, 396.68, -187500.02, -187500.02, -187500.02, -187500.02, -187500.02, 0.00, 0.00, 0.00
9, -187500.02, -187500.02, 393.44, -187500.02, -187500.02, -187500.02, -187500.02, -187500.02, 0.00, 0.00, 0.00
10, -187500.02, -187500.02, 408.23, -187500.02, -187500.02, -187500.02, -187500.02, -187500.02, 0.00, 0.00, 0.00
11, -187500.02, -187500.02, 425.55, -187500.02, -187500.02, -187500.02, -187500.02, -187500.02, 0.00, 0.00, 0.00
12, -187500.02, -187500.02, 420.32, -187500.02, -187500.02, -187500.02, -187500.02, -187500.02, 0.00, 0.00, 0.00
13, -187500.02, -187500.02, 408.17, -187500.02, -187500.02, -187500.02, -187500.02, -187500.02, 0.00, 0.00, 0.00
14, -187500.02, -187500.02, 409.17, -187500.02, -187500.02, -187500.02, -187500.02, -187500.02, 0.00, 0.00, 0.00
15, -187500.02, -187500.02, 429.13, -187500.02, -187500.02, -187500.02, -187500.02, -187500.02, -0.02, 0.01, 1.03
16, -187500.02, -187500.02, 427.70, -187500.02, -187500.02, -187500.02, -187500.02, -187500.02, 0.00, 0.00, 0.00
17, -187500.02, -187500.02, 420.53, -187500.02, -187500.02, -187500.02, -187500.02, -187500.02, 0.00, 0.00, 0.00
18, -187500.02, -187500.02, 409.77, -187500.02, -187500.02, -187500.02, -187500.02, -187500.02, 0.00, 0.00, 0.00
19, -187500.02, -187500.02, 435.39, -187500.02, -187500.02, -187500.02, -187500.02, -187500.02, 0.00, 0.00, 0.00
20, -187500.02, -187500.02, 445.22, -187500.02, -187500.02, -187500.02, -187500.02, -187500.02, 0.00, 0.00, 0.00
21, -187500.02, -187500.02, 437.56, -187500.02, -187500.02, -187500.02, -187500.02, -187500.02, 0.00, 0.00, 0.00
22, -187500.02, -187500.02, 430.92, -187500.02, -187500.02, -187500.02, -187500.02, -187500.02, 0.00, 0.00, 0.00
23, -187500.02, -187500.02, 444.82, -187500.02, -187500.02, -187500.02, -187500.02, -187500.02, 0.00, 0.00, 0.00
24, -187500.02, -187500.02, 453.16, -187500.02, -187500.02, -187500.02, -187500.02, -187500.02, 0.00, 0.00, 0.00
25, -187500.02, -187500.02, 444.44, -187500.02, -187500.02, -187500.02, -187500.02, -187500.02, -0.02, 0.01, 1.03
26, -187500.02, -187500.02, 437.60, -187500.02, -187500.02, -187500.02, -187500.02, -187500.02, 0.00, 0.00, 0.00
27, -187500.02, -187500.02, 452.02, -187500.02, -187500.02, -187500.02, -187500.02, -187500.02, 0.00, 0.00, 0.00
28, -187500.02, -187500.02, 462.35, -187500.02, -187500.02, -187500.02, -187500.02, -187500.02, 0.00, 0.00, 0.00
29, -187500.02, -187500.02, 448.85, -187500.02, -187500.02, -187500.02, -187500.02, -187500.02, 0.00, 0.00, 0.00
30, -187500.02, -187500.02, 439.97, -187500.02, -187500.02, -187500.02, -187500.02, -187500.02, 0.00, 0.00, 0.00
31, -187500.02, -187500.02, 450.68, -187500.02, -187500.02, -187500.02, -187500.02, -187500.02, 0.00, 0.00, 0.00
32, -187500.02, -187500.02, 471.47, -187500.02, -187500.02, -187500.02, -187500.02, -187500.02, 0.00, 0.00, 0.00
33, -187500.02, -187500.02, 470.21, -187500.02, -187500.02, -187500.02, -187500.02, -187500.02, 0.00, 0.00, 0.00
34, -187500.02, -187500.02, 451.01, -187500.02, -187500.02, -187500.02, -187500.02, -187500.02, 0.00, 0.00, 0.00
35, -187500.02, -187500.02, 457.63, -187500.02, -187500.02, -187500.02, -187500.02, -187500.02, -0.03, 0.01, 1.03
36, -187500.02, -187500.02, 470.82, -187500.02, -187500.02, -187500.02, -187500.02, -187500.02, 0.00, 0.00, 0.00
37, -187500.02, -187500.02, 461.65, -187500.02, -187500.02, -187500.02, -187500.02, -187500.02, 0.00, 0.00, 0.00
38, -187500.02, -187500.02, 457.56, -187500.02, -187500.02, -187500.02, -187500.02, -187500.02, 0.00, 0.00, 0.00
39, -187500.02, -187500.02, 453.94, -187500.02, -187500.02, -187500.02, -187500.02, -187500.02, 0.00, 0.00, 0.00
40, -187500.02, -187500.02, 478.37, -187500.02, -187500.02, -187500.02, -187500.02, -187500.02, 0.00, 0.00, 0.00
41, -187500.02, -187500.02, 477.25, -187500.02, -187500.02, -187500.02, -187500.02, -187500.02, 0.00, 0.00, 0.00
42, -187500.02, -187500.02, 460.47, -187500.02, -187500.02, -187500.02, -187500.02, -187500.02, 0.00, 0.00, 0.00
43, -187500.02, -187500.02, 460.13, -187500.02, -187500.02, -187500.02, -187500.02, -187500.02, 0.00, 0.00, 0.00
44, -187500.02, -187500.02, 472.36, -187500.02, -187500.02, -187500.02, -187500.02, -187500.02, 0.00, 0.00, 0.00
45, -187500.02, -187500.02, 482.44, -187500.02, -187500.02, -187500.02, -187500.02, -187500.02, -0.02, 0.01, 1.02
46, -187500.02, -187500.02, 472.47, -187500.02, -187500.02, -187500.02, -187500.02, -187500.02, 0.00, 0.00, 0.00
47, -187500.02, -187500.02, 466.55, -187500.02, -187500.02, -187500.02, -187500.02, -187500.02, 0.00, 0.00, 0.00
48, -187500.02, -187500.02, 484.18, -187500.02, -187500.02, -187500.02, -187500.02, -187500.02, 0.00, 0.00, 0.00
49, -187500.02, -187500.02, 488.68, -187500.02, -187500.02, -187500.02, -187500.02, -187500.02, 0.00, 0.00, 0.00
50, -187500.02, -187500.02, 477.30, -187500.02, -187500.02, -187500.02, -187500.02, -187500.02, 0.00, 0.00, 0.00
51, -187500.02, -187500.02, 466.21, -187500.02, -187500.02, -187500.02, -187500.02, -187500.02, 0.00, 0.00, 0.00
52, -187500.02, -187500.02, 472.61, -187500.02, -187500.02, -187500.02, -187500.02, -187500.02, 0.00, 0.00, 0.00
53, -187500.02, -187500.02, 489.70, -187500.02, -187500.02, -187500.02, -187500.02, -187500.02, 0.00, 0.00, 0.00
54, -187500.02, -187500.02, 486.11, -187500.02, -187500.02, -187500.02, -187500.02, -187500.02, 0.00, 0.00, 0.00
55, -187500.02, -187500.02, 477.30, -187500.02, -187500.02, -187500.02, -187500.02, -187500.02, -0.03, 0.01, 1.03
56, -187500.02, -187500.02, 482.37, -187500.02, -187500.02, -187500.02, -187500.02, -187500.02, 0.00, 0.00, 0.00
57, -187500.02, -187500.02, 501.30, -187500.02, -187500.02, -187500.02, -187500.02, -187500.02, 0.00, 0.00, 0.00
58, -187500.02, -187500.02, 496.34, -187500.02, -187500.02, -187500.02, -187500.02, -187500.02, 0.00, 0.00, 0.00
59, -187500.02, -187500.02, 489.15, -187500.02, -187500.02, -187500.02, -187500.02, -187500.02, 0.00, 0.00, 0.00
60, -187500.02, -187500.02, 490.24, -187500.02, -187500.02, -187500.02, -187500.02, -187500.02, 0.00, 0.00, 0.00
61, -187500.02, -187500.02, 505.73, -187500.02, -187500.02, -187500.02, -187500.02, -187500.02, 0.00, 0.00, 0.00
62, -187500.02, -187500.02, 503.56, -187500.02, -187500.02, -187500.02, -187500.02, -187500.02, 0.00, 0.00, 0.00
63, -187500.02, -187500.02, 488.03, -187500.02, -187500.02, -187500.02, -187500.02, -187500.02, 0.00, 0.00, 0.00
64, -187500.02, -187500.02, 487.58, -187500.02, -187500.02, -187500.02, -187500.02, -187500.02, 0.00, 0.00, 0.00
65, -187500.02, -187500.02, 506.83, -187500.02, -187500.02, -187500.02, -187500.02, -187500.02, 0.00, 0.00, 0.00
66, -187500.02, -187500.02, 513.04, -187500.02, -187500.02, -187500.02, -187500.02, -187500.02, -0.02, 0.01, 1.03
67, -187500.02, -187500.02, 499.92, -187500.02, -187500.02, -187500.02, -187500.02, -187500.02, 0.00, 0.00, 0.00
68, -187500.02, -187500.02, 492.83, -187500.02, -187500.02, -187500.02, -187500.02, -187500.02, 0.00, 0.00, 0.00
69, -187500.02, -187500.02, 509.64, -187500.02, -187500.02, -187500.02, -187500.02, -187500.02, 0.00, 0.00, 0.00
70, -187500.02, -187500.02, 514.78, -187500.02, -187500.02, -187500.02, -187500.02, -187500.02, 0.00, 0.00, 0.00
71, -187500.02, -187500.02, 506.60, -187500.02, -187500.02, -187500.02, -187500.02, -187500.02, 0.00, 0.00, 0.00
72, -187500.02, -187500.02, 505.66, -187500.02, -187500.02, -187500.02, -187500.02, -187500.02, 0.00, 0.00, 0.00
73, -187500.02, -187500.02, 521.06, -187500.02, -187500.02, -187500.02, -187500.02, -187500.02, 0.00, 0.00, 0.00
74, -187500.02, -187500.02, 523.14, -187500.02, -187500.02, -187500.02, -187500.02, -187500.02, 0.00, 0.00, 0.00
75, -187500.02, -187500.02, 523.86, -187500.02, -187500.02, -187500.02, -187500.02, -187500.02, 0.00, 0.00, 0.00
76, -187500.02, -187500.02, 514.58, -187500.02, -187500.02, -187500.02, -187500.02, -187500.02, -0.02, 0.01, 1.03
77, -187500.02, -187500.02, 522.94, -187500.02, -187500.02, -187500.02, -187500.02, -187500.02, 0.00, 0.00, 0.00
78, -187500.02, -187500.02, 536.42, -187500.02, -187500.02, -187500.02, -187500.02, -187500.02, 0.00, 0.00, 0.00
79, -187500.02, -187500.02, 526.52, -187500.02, -187500.02, -187500.02, -187500.02, -187500.02, 0.00, 0.00, 0.00
80, -187500.02, -187500.02, 516.75, -187500.02, -187500.02, -187500.02, -187500.02, -187500.02, 0.00, 0.00, 0.00
81, -187500.02, -187500.02, 520.64, -187500.02, -187500.02, -187500.02, -187500.02, -187500.02, 0.00, 0.00, 0.00
82, -187500.02, -187500.02, 540.49, -187500.02, -187500.02, -187500.02, -187500.02, -187500.02, 0.00, 0.00, 0.00
83, -187500.02, -187500.02, 536.33, -187500.02, -187500.02, -187500.02, -187500.02, -187500.02, 0.00, 0.00, 0.00
84, -187500.02, -187500.02, 524.33, -187500.02, -187500.02, -187500.02, -187500.02, -187500.02, 0.00, 0.00, 0.00
85, -187500.02, -187500.02, 528.13, -187500.02, -187500.02, -187500.02, -187500.02, -187500.02, 0.00, 0.00, 0.00
86, -187500.02, -187500.02, 542.23, -187500.02, -187500.02, -187500.02, -187500.02, -187500.02, -0.02, 0.01, 1.03
87, -187500.02, -187500.02, 535.93, -187500.02, -187500.02, -187500.02, -187500.02, -187500.02, 0.00, 0.00, 0.00
88, -187500.02, -187500.02, 532.04, -187500.02, -187500.02, -187500.02, -187500.02, -187500.02, 0.00, 0.00, 0.00
89, -187500.02, -187500.02, 531.50, -187500.02, -187500.02, -187500.02, -187500.02, -187500.02, 0.00, 0.00, 0.00
90, -187500.02, -187500.02, 546.52, -187500.02, -187500.02, -187500.02, -187500.02, -187500.02, 0.00, 0.00, 0.00
91, -187500.02, -187500.02, 551.06, -187500.02, -187500.02, -187500.02, -187500.02, -187500.02, 0.00, 0.00, 0.00
92, -187500.02, -187500.02, 540.78, -187500.02, -187500.02, -187500.02, -187500.02, -187500.02, 0.00, 0.00, 0.00
93, -187500.02, -187500.02, 535.99, -187500.02, -187500.02, -187500.02, -187500.02, -187500.02, 0.00, 0.00, 0.00
94, -187500.02, -187500.02, 549.99, -187500.02, -187500.02, -187500.02, -187500.02, -187500.02, 0.00, 0.00, 0.00
95, -187500.02, -187500.02, 561.65, -187500.02, -187500.02, -187500.02, -187500.02, -187500.02, 0.00, 0.00, 0.00
96, -187500.02, -187500.02, 547.26, -187500.02, -187500.02, -187500.02, -187500.02, -187500.02, -0.02, 0.01, 1.03
97, -187500.02, -187500.02, 540.76, -187500.02, -187500.02, -187500.02, -187500.02, -187500.02, 0.00, 0.00, 0.00
98, -187500.02, -187500.02, 556.60, -187500.02, -187500.02, -187500.02, -187500.02, -187500.02, 0.00, 0.00, 0.00
99, -187500.02, -187500.02, 558.50, -187500.02, -187500.02, -187500.02, -187500.02, -187500.02, 0.00, 0.00, 0.00
100, -187500.02, -187500.02, 551.46, -187500.02, -187500.02, -187500.02, -187500.02, -187500.02, 0.00, 0.00, 0.00
101, -187500.02, -187500.02, 547.35, -187500.02, -187500.02, -187500.02, -187500.02, -187500.02, 0.00, 0.00, 0.00
102, -187500.02, -187500.02, 557.70, -187500.02, -187500.02, -187500.02, -187500.02, -187500.02, 0.00, 0.00, 0.00
103, -187500.02, -187500.02, 568.58, -187500.02, -187500.02, -187500.02, -187500.02, -187500.02, 0.00, 0.00, 0.00
104, -187500.02, -187500.02, 569.16, -187500.02, -187500.02, -187500.02, -187500.02, -187500.02, 0.00, 0.00, 0.00
105, -187500.02, -187500.02, 556.02, -187500.02, -187500.02, -187500.02, -187500.02, -187500.02, 0.00, 0.00, 0.00
106, -187500.02, -187500.02, 561.01, -187500.02, -187500.02, -187500.02, -187500.02, -187500.02, -0.02, 0.01, 1.03
107, -187500.02, -187500.02, 579.96, -187500.02, -187500.02, -187500.02, -187500.02, -187500.02, 0.00, 0.00, 0.00
108, -187500.02, -187500.02, 574.35, -187500.02, -187500.02, -187500.02, -187500.02, -187500.02, 0.00, 0.00, 0.00
109, -187500.02, -187500.02, 565.92, -187500.02, -187500.02, -187500.02, -187500.02, -187500.02, 0.00, 0.00, 0.00
110, -187500.02, -187500.02, 567.69, -187500.02, -187500.02, -187500.02, -187500.02, -187500.02, 0.00, 0.00, 0.00
111, -187500.02, -187500.02, 585.01, -187500.02, -187500.02, -187500.02, -187500.02, -187500.02, 0.00, 0.00, 0.00
112, -187500.02, -187500.02, 581.73, -187500.02, -187500.02, -187500.02, -187500.02, -187500.02, 0.00, 0.00, 0.00
113, -187500.02, -187500.02, 579.27, -187500.02, -187500.02, -187500.02, -187500.02, -187500.02, 0.00, 0.00, 0.00
114, -187500.02, -187500.02, 569.14, -187500.02, -187500.02, -187500.02, -187500.02, -187500.02, 0.00, 0.00, 0.00
115, -187500.02, -187500.02, 588.21, -187500.02, -187500.02, -187500.02, -187500.02, -187500.02, 0.00, 0.00, 0.00
116, -187500.02, -187500.02, 592.28, -187500.02, -187500.02, -187500.02, -187500.02, -187500.02, -0.02, 0.01, 1.03
117, -187500.02, -187500.02, 579.65, -187500.02, -187500.02, -187500.02, -187500.02, -187500.02, 0.00, 0.00, 0.00
118, -187500.02, -187500.02, 573.70, -187500.02, -187500.02, -187500.02, -187500.02, -187500.02, 0.00, 0.00, 0.00
119, -187500.02, -187500.02, 592.30, -187500.02, -187500.02, -187500.02, -187500.02, -187500.02, 0.00, 0.00, 0.00
120, -187500.02, -187500.02, 598.98, -187500.02, -187500.02, -187500.02, -187500.02, -187500.02, 0.00, 0.00, 0.00
121, -187500.02, -187500.02, 589.35, -187500.02, -187500.02, -187500.02, -187500.02, -187500.02, 0.00, 0.00, 0.00
122, -187500.02, -187500.02, 577.59, -187500.02, -187500.02, -187500.02, -187500.02, -187500.02, 0.00, 0.00, 0.00
123, -187500.02, -187500.02, 597.93, -187500.02, -187500.02, -187500.02, -187500.02, -187500.02, 0.00, 0.00, 0.00
124, -187500.02, -187500.02, 614.20, -187500.02, -187500.02, -187500.02, -187500.02, -187500.02, 0.00, 0.00, 0.00
125, -187500.02, -187500.02, 598.78, -187500.02, -187500.02, -187500.02, -187500.02, -187500.02, 0.00, 0.00, 0.00
126, -187500.02, -187500.02, 588.88, -187500.02, -187500.02, -187500.02, -187500.02, -187500.02, 0.00, 0.00, 0.00
127, -187500.02, -187500.02, 590.78, -187500.02, -187500.02, -187500.02, -187500.02, -187500.02, -0.02, 0.01, 1.03
128, -187500.02, -187500.02, 613.80, -187500.02, -187500.02, -187500.02, -187500.02, -187500.02, 0.00, 0.00, 0.00
129, -187500.02, -187500.02, 606.25, -187500.02, -187500.02, -187500.02, -187500.02, -187500.02, 0.00, 0.00, 0.00
130, -187500.02, -187500.02, 595.74, -187500.02, -187500.02, -187500.02, -187500.02, -187500.02, 0.00, 0.00, 0.00
131, -187500.02, -187500.02, 597.17, -187500.02, -187500.02, -187500.02, -187500.02, -187500.02, 0.00, 0.00, 0.00
132, -187500.02, -187500.02, 615.84, -187500.02, -187500.02, -187500.02, -187500.02, -187500.02, 0.00, 0.00, 0.00
133, -187500.02, -187500.02, 615.75, -187500.02, -187500.02, -187500.02, -187500.02, -187500.02, 0.00, 0.00, 0.00
134, -187500.02, -187500.02, 603.45, -187500.02, -187500.02, -187500.02, -187500.02, -187500.02, 0.00, 0.00, 0.00
135, -187500.02, -187500.02, 594.33, -187500.02, -187500.02, -187500.02, -187500.02, -187500.02, 0.00, 0.00, 0.00
136, -187500.02, -187500.02, 620.89, -187500.02, -187500.02, -187500.02, -187500.02, -187500.02, 0.00, 0.00, 0.00
137, -187500.02, -187500.02, 629.40, -187500.02, -187500.02, -187500.02, -187500.02, -187500.02, -0.02, 0.01, 1.03
138, -187500.02, -187500.02, 617.00, -187500.02, -187500.02, -187500.02, -187500.02, -187500.02, 0.00, 0.00, 0.00
139, -187500.02, -187500.02, 610.87, -187500.02, -187500.02, -187500.02, -187500.02, -187500.02, 0.00, 0.00, 0.00
140, -187500.02, -187500.02, 625.02, -187500.02, -187500.02, -187500.02, -187500.02, -187500.02, 0.00, 0.00, 0.00
141, -187500.02, -187500.02, 622.23, -187500.02, -187500.02, -187500.02, -187500.02, -187500.02, 0.00, 0.00, 0.00
142, -187500.02, -187500.02, 611.01, -187500.02, -187500.02, -187500.02, -187500.02, -187500.02, 0.00, 0.00, 0.00
143, -187500.02, -187500.02, 607.54, -187500.02, -187500.02, -187500.02, -187500.02, -187500.02, 0.00, 0.00, 0.00
144, -187500.02, -187500.02, 621.04, -187500.02, -187500.02, -187500.02, -187500.02, -187500.02, 0.00, 0.00, 0.00
145, -187500.02, -187500.02, 631.12, -187500.02, -187500.02, -187500.02, -187500.02, -187500.02, 0.00, 0.00, 0.00
146, -187500.02, -187500.02, 627.61, -187500.02, -187500.02, -187500.02, -187500.02, -187500.02, 0.00, 0.00, 0.00
147, -187500.02, -187500.02, 613.87, -187500.02, -187500.02, -187500.02, -187500.02, -187500.02, -0.02, 0.00, 1.03
148, -187500.02, -187500.02, 623.28, -187500.02, -187500.02, -187500.02, -187500.02, -187500.02, 0.00, 0.00, 0.00
149, -187500.02, -187500.02, 642.05, -187500.02, -187500.02, -187500.02, -187500.02, -187500.02, 0.00, 0.00, 0.00
150, -187500.02, -187500.02, 633.92, -187500.02, -187500.02, -187500.02, -187500.02, -187500.02, 0.00, 0.00, 0.00
151, -187500.02, -187500.02, 626.16, -187500.02, -187500.02, -187500.02, -187500.02, -187500.02, 0.00, 0.00, 0.00
152, -187500.02, -187500.02, 640.91, -187500.02, -187500.02, -187500.02, -187500.02, -187500.02, 0.00, 0.00, 0.00
153, -187500.02, -187500.02, 653.25, -187500.02, -187500.02, -187500.02, -187500.02, -187500.02, 0.00, 0.00, 0.00
154, -187500.02, -187500.02, 639.66, -187500.02, -187500.02, -187500.02, -187500.02, -187500.02, 0.00, 0.00, 0.00
155, -187500.02, -187500.02, 633.87, -187500.02, -187500.02, -187500.02, -187500.02, -187500.02, 0.00, 0.00, 0.00
156, -187500.02, -187500.02, 638.08, -187500.02, -187500.02, -187500.02, -187500.02, -187500.02, 0.00, 0.00, 0.00
157, -187500.02, -187500.02, 654.77, -187500.02, -187500.02, -187500.02, -187500.02, -187500.02, -0.02, 0.01, 1.03
158, -187500.02, -187500.02, 647.55, -187500.02, -187500.02, -187500.02, -187500.02, -187500.02, 0.00, 0.00, 0.00
159, -187500.02, -187500.02, 649.18, -187500.02, -187500.02, -187500.02, -187500.02, -187500.02, 0.00, 0.00, 0.00
160, -187500.02, -187500.02, 640.47, -187500.02, -187500.02, -187500.02, -187500.02, -187500.02, 0.00, 0.00, 0.00
161, -187500.02, -187500.02, 659.09, -187500.02, -187500.02, -187500.02, -187500.02, -187500.02, 0.00, 0.00, 0.00
162, -187500.02, -187500.02, 662.89, -187500.02, -187500.02, -187500.02, -187500.02, -187500.02, 0.00, 0.00, 0.00
163, -187500.02, -187500.02, 647.40, -187500.02, -187500.02, -187500.02, -187500.02, -187500.02, 0.00, 0.00, 0.00
164, -187500.02, -187500.02, 643.86, -187500.02, -187500.02, -187500.02, -187500.02, -187500.02, 0.00, 0.00, 0.00
165, -187500.02, -187500.02, 661.48, -187500.02, -187500.02, -187500.02, -187500.02, -187500.02, 0.00, 0.00, 0.00
166, -187500.02, -187500.02, 674.26, -187500.02, -187500.02, -187500.02, -187500.02, -187500.02, 0.00, 0.00, 0.00
167, -187500.02, -187500.02, 659.78, -187500.02, -187500.02, -187500.02, -187500.02, -187500.02, -0.02, 0.01, 1.03
168, -187500.02, -187500.02, 641.90, -187500.02, -187500.02, -187500.02, -187500.02, -187500.02, 0.00, 0.00, 0.00
169, -187500.02, -187500.02, 657.48, -187500.02, -187500.02, -187500.02, -187500.02, -187500.02, 0.00, 0.00, 0.00
170, -187500.02, -187500.02, 673.66, -187500.02, -187500.02, -187500.02, -187500.02, -187500.02, 0.00, 0.00, 0.00
171, -187500.02, -187500.02, 665.61, -187500.02, -187500.02, -187500.02, -187500.02, -187500.02, 0.00, 0.00, 0.00
172, -187500.02, -187500.02, 655.82, -187500.02, -187500.02, -187500.02, -187500.02, -187500.02, 0.00, 0.00, 0.00
173, -187500.02, -187500.02, 665.43, -187500.02, -187500.02, -187500.02, -187500.02, -187500.02, 0.00, 0.00, 0.00
174, -187500.02, -187500.02, 681.01, -187500.02, -187500.02, -187500.02, -187500.02, -187500.02, 0.00, 0.00, 0.00
175, -187500.02, -187500.02, 672.92, -187500.02, -187500.02, -187500.02, -187500.02, -187500.02, 0.00, 0.00, 0.00
176, -187500.02, -187500.02, 663.40, -187500.02, -187500.02, -187500.02, -187500.02, -187500.02, 0.00, 0.00, 0.00
177, -187500.02, -187500.02, 670.08, -187500.02, -187500.02, -187500.02, -187500.02, -187500.02, -0.03, 0.01, 1.03
178, -187500.02, -187500.02, 683.32, -187500.02, -187500.02, -187500.02, -187500.02, -187500.02, 0.00, 0.00, 0.00
179, -187500.02, -187500.02, 674.08, -187500.02, -187500.02, -187500.02, -187500.02, -187500.02, 0.00, 0.00, 0.00
180, -187500.02, -187500.02, 664.70, -187500.02, -187500.02, -187500.02, -187500.02, -187500.02, 0.00, 0.00, 0.00
181, -187500.02, -187500.02, 675.22, -187500.02, -187500.02, -187500.02, -187500.02, -187500.02, 0.00, 0.00, 0.00
182, -187500.02, -187500.02, 692.88, -187500.02, -187500.02, -187500.02, -187500.02, -187500.02, 0.00, 0.00, 0.00
183, -187500.02, -187500.02, 690.38, -187500.02, -187500.02, -187500.02, -187500.02, -187500.02, 0.00, 0.00, 0.00
184, -187500.02, -187500.02, 674.55, -187500.02, -187500.02, -187500.02, -187500.02, -187500.02, 0.00, 0.00, 0.00
185, -187500.02, -187500.02, 671.09, -187500.02, -187500.02, -187500.02, -187500.02, -187500.02, 0.00, 0.00, 0.00
186, -187500.02, -187500.02, 690.58, -187500.02, -187500.02, -187500.02, -187500.02, -187500.02, 0.00, 0.00, 0.00
187, -187500.02, -187500.02, 697.40, -187500.02, -187500.02, -187500.02, -187500.02, -187500.02, 0.00, 0.00, 0.00
188, -187500.02, -187500.02, 688.90, -187500.02, -187500.02, -187500.02, -187500.02, -187500.02, -0.03, 0.01, 1.03
189, -187500.02, -187500.02, 674.89, -187500.02, -187500.02, -187500.02, -187500.02, -187500.02, 0.00, 0.00, 0.00
190, -187500.02, -187500.02, 691.67, -187500.02, -187500.02, -187500.02, -187500.02, -187500.02, 0.00, 0.00, 0.00
191, -187500.02, -187500.02, 705.20, -187500.02, -187500.02, -187500.02, -187500.02, -187500.02, 0.00, 0.00, 0.00
192, -187500.02, -187500.02, 693.49, -187500.02, -187500.02, -187500.02, -187500.02, -187500.02, 0.00, 0.00, 0.00
193, -187500.02, -187500.02, 684.99, -187500.02, -187500.02, -187500.02, -187500.02, -187500.02, 0.00, 0.00, 0.00
194, -187500.02, -187500.02, 698.78, -187500.02, -187500.02, -187500.02, -187500.02, -187500.02, 0.00, 0.00, 0.00
195, -187500.02, -187500.02, 717.89, -187500.02, -187500.02, -187500.02, -187500.02, -187500.02, 0.00, 0.00, 0.00
196, -187500.02, -187500.02, 706.65, -187500.02, -187500.02, -187500.02, -187500.02, -187500.02, 0.00, 0.00, 0.00
197, -187500.02, -187500.02, 699.36, -187500.02, -187500.02, -187500.02, -187500.02, -187500.02, 0.00, 0.00, 0.00
198, -187500.02, -187500.02, 698.56, -187500.02, -187500.02, -187500.02, -187500.02, -187500.02, -0.03, 0.01, 1.02
199, -187500.02, -187500.02, 714.07, -187500.02, -187500.02, -187500.02, -187500.02, -187500.02, 0.00, 0.00, 0.00
200, -187500.02, -187500.02, 707.39, -187500.02, -187500.02, -187500.02, -187500.02, -187500.02, 0.00, 0.00, 0.00
201, -187500.02, -187500.02, 697.31, -187500.02, -187500.02, -187500.02, -187500.02, -187500.02, 0.00, 0.00, 0.00
202, -187500.02, -187500.02, 698.78, -187500.02, -187500.02, -187500.02, -187500.02, -187500.02, 0.00, 0.00, 0.00
203, -187500.02, -187500.02, 721.25, -187500.02, -187500.02, -187500.02, -187500.02, -187500.02, 0.00, 0.00, 0.00
204, -187500.02, -187500.02, 719.37, -187500.02, -187500.02, -187500.02, -187500.02, -187500.02, 0.00, 0.00, 0.00
205, -187500.02, -187500.02, 708.51, -187500.02, -187500.02, -187500.02, -187500.02, -187500.02, 0.00, 0.00, 0.00
206, -187500.02, -187500.02, 708.13, -187500.02, -187500.02, -187500.02, -187500.02, -187500.02, 0.00, 0.00, 0.00
207, -187500.02, -187500.02, 727.37, -187500.02, -187500.02, -187500.02, -187500.02, -187500.02, 0.00, 0.00, 0.00
208, -187500.02, -187500.02, 725.60, -187500.02, -187500.02, -187500.02, -187500.02, -187500.02, -0.02, 0.01, 1.03
209, -187500.02, -187500.02, 713.33, -187500.02, -187500.02, -187500.02, -187500.02, -187500.02, 0.00, 0.00, 0.00
210, -187500.02, -187500.02, 713.36, -187500.02, -187500.02, -187500.02, -187500.02, -187500.02, 0.00, 0.00, 0.00
211, -187500.02, -187500.02, 730.88, -187500.02, -187500.02, -187500.02, -187500.02, -187500.02, 0.00, 0.00, 0.00
212, -187500.02, -187500.02, 738.03, -187500.02, -187500.02, -187500.02, -187500.02, -187500.02, 0.00, 0.00, 0.00
213, -187500.02, -187500.02, 721.04, -187500.02, -187500.02, -187500.02, -187500.02, -187500.02, 0.00, 0.00, 0.00
214, -187500.02, -187500.02, 713.98, -187500.02, -187500.02, -187500.02, -187500.02, -187500.02, 0.00, 0.00, 0.00
215, -187500.02, -187500.02, 733.94, -187500.02, -187500.02, -187500.02, -187500.02, -187500.02, 0.00, 0.00, 0.00
216, -187500.02, -187500.02, 741.30, -187500.02, -187500.02, -187500.02, -187500.02, -187500.02, 0.00, 0.00, 0.00
217, -187500.02, -187500.02, 725.74, -187500.02, -187500.02, -187500.02, -187500.02, -187500.02, 0.00, 0.00, 0.00
218, -187500.02, -187500.02, 717.29, -187500.02, -187500.02, -187500.02, -187500.02, -187500.02, -0.02, 0.01, 1.03
219, -187500.02, -187500.02, 734.90, -187500.02, -187500.02, -187500.02, -187500.02, -187500.02, 0.00, 0.00, 0.00
220, -187500.02, -187500.02, 749.63, -187500.02, -187500.02, -187500.02, -187500.02, -187500.02, 0.00, 0.00, 0.00
221, -187500.02, -187500.02, 738.84, -187500.02, -187500.02, -187500.02, -187500.02, -187500.02, 0.00, 0.00, 0.00
222, -187500.02, -187500.02, 730.66, -187500.02, -187500.02, -187500.02, -187500.02, -187500.02, 0.00, 0.00, 0.00
223, -187500.02, -187500.02, 737.38, -187500.02, -187500.02, -187500.02, -187500.02, -187500.02, 0.00, 0.00, 0.00
224, -187500.02, -187500.02, 749.70, -187500.02, -187500.02, -187500.02, -187500.02, -187500.02, 0.00, 0.00, 0.00
225, -187500.02, -187500.02, 746.12, -187500.02, -187500.02, -187500.02, -187500.02, -187500.02, 0.00, 0.00, 0.00
226, -187500.02, -187500.02, 731.46, -187500.02, -187500.02, -187500.02, -187500.02, -187500.02, 0.00, 0.00, 0.00
227, -187500.02, -187500.02, 728.42, -187500.02, -187500.02, -187500.02, -187500.02, -187500.02, 0.00, 0.00, 0.00
228, -187500.02, -187500.02, 748.31, -187500.02, -187500.02, -187500.02, -187500.02, -187500.02, -0.02, 0.01, 1.03
229, -187500.02, -187500.02, 753.14, -187500.02, -187500.02, -187500.02, -187500.02, -187500.02, 0.00, 0.00, 0.00
230, -187500.02, -187500.02, 744.13, -187500.02, -187500.02, -187500.02, -187500.02, -187500.02, 0.00, 0.00, 0.00
231, -187500.02, -187500.02, 735.80, -187500.02, -187500.02, -187500.02, -187500.02, -187500.02, 0.00, 0.00, 0.00
232, -187500.02, -187500.02, 753.61, -187500.02, -187500.02, -187500.02, -187500.02, -187500.02, 0.00, 0.00, 0.00
233, -187500.02, -187500.02, 760.03, -187500.02, -187500.02, -187500.02, -187500.02, -187500.02, 0.00, 0.00, 0.00
234, -187500.02, -187500.02, 747.24, -187500.02, -187500.02, -187500.02, -187500.02, -187500.02, 0.00, 0.00, 0.00
235, -187500.02, -187500.02, 741.81, -187500.02, -187500.02, -187500.02, -187500.02, -187500.02, 0.00, 0.00, 0.00
236, -187500.02, -187500.02, 754.19, -187500.02, -187500.02, -187500.02, -187500.02, -187500.02, 0.00, 0.00, 0.00
237, -187500.02, -187500.02, 763.76, -187500.02, -187500.02, -187500.02, -187500.02, -187500.02, 0.00, 0.00, 0.00
238, -187500.02, -187500.02, 753.59, -187500.02, -187500.02, -187500.02, -187500.02, -187500.02, -0.02, 0.01, 1.03
239, -187500.02, -187500.02, 747.40, -187500.02, -187500.02, -187500.02, -187500.02, -187500.02, 0.00, 0.00, 0.00
240, -187500.02, -187500.02, 754.10, -187500.02, -187500.02, -187500.02, -187500.02, -187500.02, 0.00, 0.00, 0.00
241, -187500.02, -187500.02, 770.11, -187500.02, -187500.02, -187500.02, -187500.02, -187500.02, 0.00, 0.00, 0.00
242, -187500.02, -187500.02, 764.00, -187500.02, -187500.02, -187500.02, -187500.02, -187500.02, 0.00, 0.00, 0.00
243, -187500.02, -187500.02, 751.49, -187500.02, -187500.02, -187500.02, -187500.02, -187500.02, 0.00, 0.00, 0.00
244, -187500.02, -187500.02, 760.70, -187500.02, -187500.02, -187500.02, -187500.02, -187500.02, 0.00, 0.00, 0.00
245, -187500.02, -187500.02, 767.78, -187500.02, -187500.02, -187500.02, -187500.02, -187500.02, 0.00, 0.00, 0.00
246, -187500.02, -187500.02, 764.97, -187500.02, -187500.02, -187500.02, -187500.02, -187500.02, 0.00, 0.00, 0.00
247, -187500.02, -187500.02, 758.24, -187500.02, -187500.02, -187500.02, -187500.02, -187500.02, 0.00, 0.00, 0.00
248, -187500.02, -187500.02, 754.10, -187500.02, -187500.02, -187500.02, -187500.02, -187500.02, -0.02, 0.01, 1.03
249, -187500.02, -187500.02, 782.13, -187500.02, -187500.02, -187500.02, -187500.02, -187500.02, 0.00, 0.00, 0.00
250, -187500.02, -187500.02, 775.25, -187500.02, -187500.02, -187500.02, -187500.02, -187500.02, 0.00, 0.00, 0.00
251, -187500.02, -187500.02, 764.34, -187500.02, -187500.02, -187500.02, -187500.02, -187500.02, 0.00, 0.00, 0.00
252, -187500.02, -187500.02, 757.68, -187500.02, -187500.02, -187500.02, -187500.02, -187500.02, 0.00, 0.00, 0.00
253, -187500.02, -187500.02, 778.71, -187500.02, -187500.02, -187500.02, -187500.02, -187500.02, 0.00, 0.00, 0.00
254, -187500.02, -187500.02, 774.93, -187500.02, -187500.02, -187500.02, -187500.02, -187500.02, 0.00, 0.00, 0.00
255, -187500.02, -187500.02, 767.40, -187500.02, -187500.02, -187500.02, -187500.02, -187500.02, 0.00, 0.00, 0.00
0, -187500.02, -187500.02, 767.96, -187500.02, -187500.02, -187500.02, -187500.02, -187500.02, 0.00, 0.00, 0.00
1, -187500.02, -187500.02, 780.75, -187500.02, -187500.02, -187500.02, -187500.02, -187500.02, 0.00, 0.00, 0.00
2, -187500.02, -187500.02, 786.20, -187500.02, -187500.02, -187500.02, -187500.02, -187500.02, 0.00, 0.00, 0.00
3, -187500.02, -187500.02, 774.04, -187500.02, -187500.02, -187500.02, -187500.02, -187500.02, -0.03, 0.01, 1.03
4, -187500.02, -187500.02, 772.21, -187500.02, -187500.02, -187500.02, -187500.02, -187500.02, 0.00, 0.00, 0.00
5, -187500.02, -187500.02, 783.67, -187500.02, -187500.02, -187500.02, -187500.02, -187500.02, 0.00, 0.00, 0.00
6, -187500.02, -187500.02, 790.31, -187500.02, -187500.02, -187500.02, -187500.02, -187500.02, 0.00, 0.00, 0.00
7, -187500.02, -187500.02, 782.15, -187500.02, -187500.02, -187500.02, -187500.02, -187500.02, 0.00, 0.00, 0.00
8, -187500.02, -187500.02, 767.36, -187500.02, -187500.02, -187500.02, -187500.02, -187500.02, 0.00, 0.00, 0.00
9, -187500.02, -187500.02, 775.99, -187500.02, -187500.02, -187500.02, -187500.02, -187500.02, 0.00, 0.00, 0.00
10, -187500.02, -187500.02, 791.52, -187500.02, -187500.02, -187500.02, -187500.02, -187500.02, 0.00, 0.00, 0.00
11, -187500.02, -187500.02, 784.88, -187500.02, -187500.02, -187500.02, -187500.02, -187500.02, 0.00, 0.00, 0.00
12, -187500.02, -187500.02, 775.94, -187500.02, -187500.02, -187500.02, -187500.02, -187500.02, 0.00, 0.00, 0.00
13, -187500.02, -187500.02, 780.28, -187500.02, -187500.02, -187500.02, -187500.02, -187500.02, -0.02, 0.01, 1.02
14, -187500.02, -187500.02, 794.34, -187500.02, -187500.02, -187500.02, -187500.02, -187500.02, 0.00, 0.00, 0.00
15, -187500.02, -187500.02, 789.73, -187500.02, -187500.02, -187500.02, -187500.02, -187500.02, 0.00, 0.00, 0.00
16, -187500.02, -187500.02, 779.79, -187500.02, -187500.02, -187500.02, -187500.02, -187500.02, 0.00, 0.00, 0.00
17, -187500.02, -187500.02, 782.62, -187500.02, -187500.02, -187500.02, -187500.02, -187500.02, 0.00, 0.00, 0.00
18, -187500.02, -187500.02, 801.29, -187500.02, -187500.02, -187500.02, -187500.02, -187500.02, 0.00, 0.00, 0.00
19, -187500.02, -187500.02, 798.25, -187500.02, -187500.02, -187500.02, -187500.02, -187500.02, 0.00, 0.00, 0.00
20, -187500.02, -187500.02, 788.21, -187500.02, -187500.02, -187500.02, -187500.02, -187500.02, 0.00, 0.00, 0.00
21, -187500.02, -187500.02, 783.00, -187500.02, -187500.02, -187500.02, -187500.02, -187500.02, 0.00, 0.00, 0.00
22, -187500.02, -187500.02, 797.93, -187500.02, -187500.02, -187500.02, -187500.02, -187500.02, 0.00, 0.00, 0.00
23, -187500.02, -187500.02, 803.03, -187500.02, -187500.02, -187500.02, -187500.02, -187500.02, -0.02, 0.01, 1.02
24, -187500.02, -187500.02, 795.90, -187500.02, -187500.02, -187500.02, -187500.02, -187500.02, 0.00, 0.00, 0.00
25, -187500.02, -187500.02, 791.81, -187500.02, -187500.02, -187500.02, -187500.02, -187500.02, 0.00, 0.00, 0.00
26, -187500.02, -187500.02, 804.57, -187500.02, -187500.02, -187500.02, -187500.02, -187500.02, 0.00, 0.00, 0.00
27, -187500.02, -187500.02, 809.31, -187500.02, -187500.02, -187500.02, -187500.02, -187500.02, 0.00, 0.00, 0.00
28, -187500.02, -187500.02, 797.80, -187500.02, -187500.02, -187500.02, -187500.02, -187500.02, 0.00, 0.00, 0.00
29, -187500.02, -187500.02, 799.43, -187500.02, -187500.02, -187500.02, -187500.02, -187500.02, 0.00, 0.00, 0.00
30, -187500.02, -187500.02, 815.46, -187500.02, -187500.02, -187500.02, -187500.02, -187500.02, 0.00, 0.00, 0.00
31, -187500.02, -187500.02, 818.10, -187500.02, -187500.02, -187500.02, -187500.02, -187500.02, 0.00, 0.00, 0.00
32, -187500.02, -187500.02, 809.45, -187500.02, -187500.02, -187500.02, -187500.02, -187500.02, 0.00, 0.00, 0.00
33, -187500.02, -187500.02, 799.50, -187500.02, -187500.02, -187500.02, -187500.02, -187500.02, -0.02, 0.01, 1.02
34, -187500.02, -187500.02, 812.44, -187500.02, -187500.02, -187500.02, -187500.02, -187500.02, 0.00, 0.00, 0.00
35, -187500.02, -187500.02, 827.55, -187500.02, -187500.02, -187500.02, -187500.02, -187500.02, 0.00, 0.00, 0.00
36, -187500.02, -187500.02, 823.21, -187500.02, -187500.02, -187500.02, -187500.02, -187500.02, 0.00, 0.00, 0.00
37, -187500.02, -187500.02, 810.56, -187500.02, -187500.02, -187500.02, -187500.02, -187500.02, 0.00, 0.00, 0.00
38, -187500.02, -187500.02, 808.78, -187500.02, -187500.02, -187500.02, -187500.02, -187500.02, 0.00, 0.00, 0.00
39, -187500.02, -187500.02, 822.63, -187500.02, -187500.02, -187500.02, -187500.02, -187500.02, 0.00, 0.00, 0.00
40, -187500.02, -187500.02, 817.69, -187500.02, -187500.02, -187500.02, -187500.02, -187500.02, 0.00, 0.00, 0.00
41, -187500.02, -187500.02, 813.16, -187500.02, -187500.02, -187500.02, -187500.02, -187500.02, 0.00, 0.00, 0.00
42, -187500.02, -187500.02, 813.98, -187500.02, -187500.02, -187500.02, -187500.02, -187500.02, 0.00, 0.00, 0.00
43, -187500.02, -187500.02, 835.17, -187500.02, -187500.02, -187500.02, -187500.02, -187500.02, -0.02, 0.01, 1.03
44, -187500.02, -187500.02, 832.56, -187500.02, -187500.02, -187500.02, -187500.02, -187500.02, 0.00, 0.00, 0.00
45, -187500.02, -187500.02, 825.85, -187500.02, -187500.02, -187500.02, -187500.02, -187500.02, 0.00, 0.00, 0.00
46, -187500.02, -187500.02, 824.87, -187500.02, -187500.02, -187500.02, -187500.02, -187500.02, 0.00, 0.00, 0.00
47, -187500.02, -187500.02, 834.52, -187500.02, -187500.02, -187500.02, -187500.02, -187500.02, 0.00, 0.00, 0.00
48, -187500.02, -187500.02, 835.33, -187500.02, -187500.02, -187500.02, -187500.02, -187500.02, 0.00, 0.00, 0.00
49, -187500.02, -187500.02, 830.26, -187500.02, -187500.02, -187500.02, -187500.02, -187500.02, 0.00, 0.00, 0.00
50, -187500.02, -187500.02, 819.48, -187500.02, -187500.02, -187500.02, -187500.02, -187500.02, 0.00, 0.00, 0.00
51, -187500.02, -187500.02, 840.54, -187500.02, -187500.02, -187500.02, -187500.02, -187500.02, 0.00, 0.00, 0.00
52, -187500.02, -187500.02, 844.29, -187500.02, -187500.02, -187500.02, -187500.02, -187500.02, 0.00, 0.00, 0.00
53, -187500.02, -187500.02, 836.11, -187500.02, -187500.02, -187500.02, -187500.02, -187500.02, -0.02, 0.01, 1.03
54, -187500.02, -187500.02, 828.11, -187500.02, -187500.02, -187500.02, -187500.02, -187500.02, 0.00, 0.00, 0.00
55, -187500.02, -187500.02, 841.72, -187500.02, -187500.02, -187500.02, -187500.02, -187500.02, 0.00, 0.00, 0.00
56, -187500.02, -187500.02, 852.94, -187500.02, -187500.02, -187500.02, -187500.02, -187500.02, 0.00, 0.00, 0.00
57, -187500.02, -187500.02, 842.86, -187500.02, -187500.02, -187500.02, -187500.02, -187500.02, 0.00, 0.00, 0.00
58, -187500.02, -187500.02, 836.74, -187500.02, -187500.02, -187500.02, -187500.02, -187500.02, 0.00, 0.00, 0.00
59, -187500.02, -187500.02, 848.05, -187500.02, -187500.02, -187500.02, -187500.02, -187500.02, 0.00, 0.00, 0.00
60, -187500.02, -187500.02, 858.62, -187500.02, -187500.02, -187500.02, -187500.02, -187500.02, 0.00, 0.00, 0.00
61, -187500.02, -187500.02, 848.56, -187500.02, -187500.02, -187500.02, -187500.02, -187500.02, 0.00, 0.00, 0.00
62, -187500.02, -187500.02, 838.26, -187500.02, -187500.02, -187500.02, -187500.02, -187500.02, 0.00, 0.00, 0.00
63, -187500.02, -187500.02, 850.39, -187500.02, -187500.02, -187500.02, -187500.02, -187500.02, 0.00, 0.00, 0.00
64, -187500.02, -187500.02, 872.88, -187500.02, -187500.02, -187500.02, -187500.02, -187500.02, -0.03, 0.00, 1.03
65, -187500.02, -187500.02, 862.04, -187500.02, -187500.02, -187500.02, -187500.02, -187500.02, 0.00, 0.00, 0.00
66, -187500.02, -187500.02, 844.99, -187500.02, -187500.02, -187500.02, -187500.02, -187500.02, 0.00, 0.00, 0.00
67, -187500.02, -187500.02, 845.07, -187500.02, -187500.02, -187500.02, -187500.02, -187500.02, 0.00, 0.00, 0.00
68, -187500.02, -187500.02, 859.85, -187500.02, -187500.02, -187500.02, -187500.02, -187500.02, 0.00, 0.00, 0.00
69, -187500.02, -187500.02, 863.60, -187500.02, -187500.02, -187500.02, -187500.02, -187500.02, 0.00, 0.00, 0.00
70, -187500.02, -187500.02, 855.89, -187500.02, -187500.02, -187500.02, -187500.02, -187500.02, 0.00, 0.00, 0.00
71, -187500.02, -187500.02, 850.84, -187500.02, -187500.02, -187500.02, -187500.02, -187500.02, 0.00, 0.00, 0.00
72, -187500.02, -187500.02, 871.47, -187500.02, -187500.02, -187500.02, -187500.02, -187500.02, 0.00, 0.00, 0.00
73, -187500.02, -187500.02, 872.70, -187500.02, -187500.02, -187500.02, -187500.02, -187500.02, 0.00, 0.00, 0.00
74, -187500.02, -187500.02, 861.41, -187500.02, -187500.02, -187500.02, -187500.02, -187500.02, -0.02, 0.00, 1.03
75, -187500.02, -187500.02, 853.84, -187500.02, -187500.02, -187500.02, -187500.02, -187500.02, 0.00, 0.00, 0.00
76, -187500.02, -187500.02, 871.11, -187500.02, -187500.02, -187500.02, -187500.02, -187500.02, 0.00, 0.00, 0.00
77, -187500.02, -187500.02, 875.14, -187500.02, -187500.02, -187500.02, -187500.02, -187500.02, 0.00, 0.00, 0.00
78, -187500.02, -187500.02, 868.97, -187500.02, -187500.02, -187500.02, -187500.02, -187500.02, 0.00, 0.00, 0.00
79, -187500.02, -187500.02, 848.72, -187500.02, -187500.02, -187500.02, -187500.02, -187500.02, 0.00, 0.00, 0.00
80, -187500.02, -187500.02, 860.63, -187500.02, -187500.02, -187500.02, -187500.02, -187500.02, 0.00, 0.00, 0.00
81, -187500.02, -187500.02, 882.29, -187500.02, -187500.02, -187500.02, -187500.02, -187500.02, 0.00, 0.00, 0.00
82, -187500.02, -187500.02, 873.75, -187500.02, -187500.02, -187500.02, -187500.02, -187500.02, 0.00, 0.00, 0.00
83, -187500.02, -187500.02, 863.02, -187500.02, -187500.02, -187500.02, -187500.02, -187500.02, 0.00, 0.00, 0.00
84, -187500.02, -187500.02, 871.03, -187500.02, -187500.02, -187500.02, -187500.02, -187500.02, -0.02, 0.01, 1.03
85, -187500.02, -187500.02, 886.47, -187500.02, -187500.02, -187500.02, -187500.02, -187500.02, 0.00, 0.00, 0.00
86, -187500.02, -187500.02, 884.44, -187500.02, -187500.02, -187500.02, -187500.02, -187500.02, 0.00, 0.00, 0.00
87, -187500.02, -187500.02, 870.73, -187500.02, -187500.02, -187500.02, -187500.02, -187500.02, 0.00, 0.00, 0.00
88, -187500.02, -187500.02, 871.07, -187500.02, -187500.02, -187500.02, -187500.02, -187500.02, 0.00, 0.00, 0.00
89, -187500.02, -187500.02, 885.11, -187500.02, -187500.02, -187500.02, -187500.02, -187500.02, 0.00, 0.00, 0.00
90, -187500.02, -187500.02, 885.40, -187500.02, -187500.02, -187500.02, -187500.02, -187500.02, 0.00, 0.00, 0.00
91, -187500.02, -187500.02, 873.42, -187500.02, -187500.02, -187500.02, -187500.02, -187500.02, 0.00, 0.00, 0.00
92, -187500.02, -187500.02, 868.28, -187500.02, -187500.02, -187500.02, -187500.02, -187500.02, 0.00, 0.00, 0.00
93, -187500.02, -187500.02, 891.70, -187500.02, -187500.02, -187500.02, -187500.02, -187500.02, 0.00, 0.00, 0.00
94, -187500.02, -187500.02, 897.11, -187500.02, -187500.02, -187500.02, -187500.02, -187500.02, -0.02, 0.01, 1.02
95, -187500.02, -187500.02, 885.37, -187500.02, -187500.02, -187500.02, -187500.02, -187500.02, 0.00, 0.00, 0.00
96, -187500.02, -187500.02, 877.60, -187500.02, -187500.02, -187500.02, -187500.02, -187500.02, 0.00, 0.00, 0.00
97, -187500.02, -187500.02, 892.93, -187500.02, -187500.02, -187500.02, -187500.02, -187500.02, 0.00, 0.00, 0.00
98, -187500.02, -187500.02, 894.65, -187500.02, -187500.02, -187500.02, -187500.02, -187500.02, 0.00, 0.00, 0.00
99, -187500.02, -187500.02, 882.65, -187500.02, -187500.02, -187500.02, -187500.02, -187500.02, 0.00, 0.00, 0.00
100, -187500.02, -187500.02, 876.30, -187500.02, -187500.02, -187500.02, -187500.02, -187500.02, 0.00, 0.00, 0.00
101, -187500.02, -187500.02, 887.90, -187500.02, -187500.02, -187500.02, -187500.02, -187500.02, 0.00, 0.00, 0.00
102, -187500.02, -187500.02, 902.09, -187500.02, -187500.02, -187500.02, -187500.02, -187500.02, 0.00, 0.00, 0.00
103, -187500.02, -187500.02, 894.52, -187500.02, -187500.02, -187500.02, -187500.02, -187500.02, 0.00, 0.00, 0.00
104, -187500.02, -187500.02, 890.23, -187500.02, -187500.02, -187500.02, -187500.02, -187500.02, -0.02, 0.01, 1.02
105, -187500.02, -187500.02, 897.89, -187500.02, -187500.02, -187500.02, -187500.02, -187500.02, 0.00, 0.00, 0.00
106, -187500.02, -187500.02, 910.19, -187500.02, -187500.02, -187500.02, -187500.02, -187500.02, 0.00, 0.00, 0.00
107, -187500.02, -187500.02, 904.04, -187500.02, -187500.02, -187500.02, -187500.02, -187500.02, 0.00, 0.00, 0.00
108, -187500.02, -187500.02, 896.13, -187500.02, -187500.02, -187500.02, -187500.02, -187500.02, 0.00, 0.00, 0.00
109, -187500.02, -187500.02, 899.30, -187500.02, -187500.02, -187500.02, -187500.02, -187500.02, 0.00, 0.00, 0.00
110, -187500.02, -187500.02, 913.65, -187500.02, -187500.02, -187500.02, -187500.02, -187500.02, 0.00, 0.00, 0.00
111, -187500.02, -187500.02, 902.85, -187500.02, -187500.02, -187500.02, -187500.02, -187500.02, 0.00, 0.00, 0.00
112, -187500.02, -187500.02, 894.27, -187500.02, -187500.02, -187500.02, -187500.02, -187500.02, 0.00, 0.00, 0.00
113, -187500.02, -187500.02, 893.62, -187500.02, -187500.02, -187500.02, -187500.02, -187500.02, 0.00, 0.00, 0.00
114, -187500.02, -187500.02, 913.43, -187500.02, -187500.02, -187500.02, -187500.02, -187500.02, -0.02, 0.01, 1.02
115, -187500.02, -187500.02, 910.92, -187500.02, -187500.02, -187500.02, -187500.02, -187500.02, 0.00, 0.00, 0.00
116, -187500.02, -187500.02, 898.07, -187500.02, -187500.02, -187500.02, -187500.02, -187500.02, 0.00, 0.00, 0.00
117, -187500.02, -187500.02, 894.38, -187500.02, -187500.02, -187500.02, -187500.02, -187500.02, 0.00, 0.00, 0.00
118, -187500.02, -187500.02, 917.25, -187500.02, -187500.02, -187500.02, -187500.02, -187500.02, 0.00, 0.00, 0.00
119, -187500.02, -187500.02, 912.58, -187500.02, -187500.02, -187500.02, -187500.02, -187500.02, 0.00, 0.00, 0.00
120, -187500.02, -187500.02, 903.88, -187500.02, -187500.02, -187500.02, -187500.02, -187500.02, 0.00, 0.00, 0.00
121, -187500.02, -187500.02, 899.97, -187500.02, -187500.02, -187500.02, -187500.02, -187500.02, 0.00, 0.00, 0.00
122, -187500.02, -187500.02, 913.56, -187500.02, -187500.02, -187500.02, -187500.02, -187500.02, 0.00, 0.00, 0.00
123, -187500.02, -187500.02, 923.31, -187500.02, -187500.02, -187500.02, -187500.02, -187500.02, 0.00, 0.00, 0.00
124, -187500.02, -187500.02, 909.05, -187500.02, -187500.02, -187500.02, -187500.02, -187500.02, 0.00, 0.00, 0.00
125, -187500.02, -187500.02, 901.09, -187500.02, -187500.02, -187500.02, -187500.02, -187500.02, -0.02, 0.00, 1.02
126, -187500.02, -187500.02, 910.90, -187500.02, -187500.02, -187500.02, -187500.02, -187500.02, 0.00, 0.00, 0.00
127, -187500.02, -187500.02, 923.40, -187500.02, -187500.02, -187500.02, -187500.02, -187500.02, 0.00, 0.00, 0.00
128, -187500.02, -187500.02, 912.42, -187500.02, -187500.02, -187500.02, -187500.02, -187500.02, 0.00, 0.00, 0.00
129, -187500.02, -187500.02, 906.21, -187500.02, -187500.02, -187500.02, -187500.02, -187500.02, 0.00, 0.00, 0.00
130, -187500.02, -187500.02, 911.41, -187500.02, -187500.02, -187500.02, -187500.02, -187500.02, 0.00, 0.00, 0.00
131, -187500.02, -187500.02, 923.15, -187500.02, -187500.02, -187500.02, -187500.02, -187500.02, 0.00, 0.00, 0.00
132, -187500.02, -187500.02, 919.08, -187500.02, -187500.02, -187500.02, -187500.02, -187500.02, 0.00, 0.00, 0.00
133, -187500.02, -187500.02, 911.59, -187500.02, -187500.02, -187500.02, -187500.02, -187500.02, 0.00, 0.00, 0.00
134, -187500.02, -187500.02, 913.36, -187500.02, -187500.02, -187500.02, -187500.02, -187500.02, 0.00, 0.00, 0.00
135, -187500.02, -187500.02, 928.92, -187500.02, -187500.02, -187500.02, -187500.02, -187500.02, -0.02, 0.01, 1.02
136, -187500.02, -187500.02, 926.12, -187500.02, -187500.02, -187500.02, -187500.02, -187500.02, 0.00, 0.00, 0.00
137, -187500.02, -187500.02, 915.39, -187500.02, -187500.02, -187500.02, -187500.02, -187500.02, 0.00, 0.00, 0.00
138, -187500.02, -187500.02, 913.67, -187500.02, -187500.02, -187500.02, -187500.02, -187500.02, 0.00, 0.00, 0.00
139, -187500.02, -187500.02, 932.58, -187500.02, -187500.02, -187500.02, -187500.02, -187500.02, 0.00, 0.00, 0.00
140, -187500.02, -187500.02, 932.43, -187500.02, -187500.02, -187500.02, -187500.02, -187500.02, 0.00, 0.00, 0.00
141, -187500.02, -187500.02, 926.08, -187500.02, -187500.02, -187500.02, -187500.02, -187500.02, 0.00, 0.00, 0.00
142, -187500.02, -187500.02, 913.25, -187500.02, -187500.02, -187500.02, -187500.02, -187500.02, 0.00, 0.00, 0.00
143, -187500.02, -187500.02, 926.30, -187500.02, -187500.02, -187500.02, -187500.02, -187500.02, 0.00, 0.00, 0.00
144, -187500.02, -187500.02, 939.73, -187500.02, -187500.02, -187500.02, -187500.02, -187500.02, 0.00, 0.00, 0.00
145, -187500.02, -187500.02, 928.18, -187500.02, -187500.02, -187500.02, -187500.02, -187500.02, -0.02, 0.01, 1.03
146, -187500.02, -187500.02, 920.58, -187500.02, -187500.02, -187500.02, -187500.02, -187500.02, 0.00, 0.00, 0.00
147, -187500.02, -187500.02, 938.77, -187500.02, -187500.02, -187500.02, -187500.02, -187500.02, 0.00, 0.00, 0.00
148, -187500.02, -187500.02, 951.63, -187500.02, -187500.02, -187500.02, -187500.02, -187500.02, 0.00, 0.00, 0.00
149, -187500.02, -187500.02, 932.31, -187500.02, -187500.02, -187500.02, -187500.02, -187500.02, 0.00, 0.00, 0.00
150, -187500.02, -187500.02, 917.72, -187500.02, -187500.02, -187500.02, -187500.02, -187500.02, 0.00, 0.00, 0.00
151, -187500.02, -187500.02, 931.11, -187500.02, -187500.02, -187500.02, -187500.02, -187500.02, 0.00, 0.00, 0.00
152, -187500.02, -187500.02, 947.56, -187500.02, -187500.02, -187500.02, -187500.02, -187500.02, 0.00, 0.00, 0.00
153, -187500.02, -187500.02, 933.27, -187500.02, -187500.02, -187500.02, -187500.02, -187500.02, 0.00, 0.00, 0.00
154, -187500.02, -187500.02, 924.47, -187500.02, -187500.02, -187500.02, -187500.02, -187500.02, 0.00, 0.00, 0.00
155, -187500.02, -187500.02, 928.96, -187500.02, -187500.02, -187500.02, -187500.02, -187500.02, -0.02, 0.01, 1.03
156, -187500.02, -187500.02, 946.35, -187500.02, -187500.02, -187500.02, -187500.02, -187500.02, 0.00, 0.00, 0.00
157, -187500.02, -187500.02, 938.97, -187500.02, -187500.02, -187500.02, -187500.02, -187500.02, 0.00, 0.00, 0.00
158, -187500.02, -187500.02, 927.44, -187500.02, -187500.02, -187500.02, -187500.02, -187500.02, 0.00, 0.00, 0.00
159, -187500.02, -187500.02, 937.57, -187500.02, -187500.02, -187500.02, -187500.02, -187500.02, 0.00, 0.00, 0.00
160, -187500.02, -187500.02, 959.05, -187500.02, -187500.02, -187500.02, -187500.02, -187500.02, 0.00, 0.00, 0.00
161, -187500.02, -187500.02, 947.18, -187500.02, -187500.02, -187500.02, -187500.02, -187500.02, 0.00, 0.00, 0.00
162, -187500.02, -187500.02, 933.72, -187500.02, -187500.02, -187500.02, -187500.02, -187500.02, 0.00, 0.00, 0.00
163, -187500.02, -187500.02, 934.82, -187500.02, -187500.02, -187500.02, -187500.02, -187500.02, 0.00, 0.00, 0.00
164, -187500.02, -187500.02, 955.00, -187500.02, -187500.02, -187500.02, -187500.02, -187500.02, 0.00, 0.00, 0.00
165, -187500.02, -187500.02, 956.27, -187500.02, -187500.02, -187500.02, -187500.02, -187500.02, -0.02, 0.01, 1.03
166, -187500.02, -187500.02, 945.50, -187500.02, -187500.02, -187500.02, -187500.02, -187500.02, 0.00, 0.00, 0.00
167, -187500.02, -187500.02, 937.37, -187500.02, -187500.02, -187500.02, -187500.02, -187500.02, 0.00, 0.00, 0.00
168, -187500.02, -187500.02, 954.93, -187500.02, -187500.02, -187500.02, -187500.02, -187500.02, 0.00, 0.00, 0.00
169, -187500.02, -187500.02, 959.65, -187500.02, -187500.02, -187500.02, -187500.02, -187500.02, 0.00, 0.00, 0.00
170, -187500.02, -187500.02, 952.03, -187500.02, -187500.02, -187500.02, -187500.02, -187500.02, 0.00, 0.00, 0.00
171, -187500.02, -187500.02, 941.12, -187500.02, -187500.02, -187500.02, -187500.02, -187500.02, 0.00, 0.00, 0.00
172, -187500.02, -187500.02, 949.26, -187500.02, -187500.02, -187500.02, -187500.02, -187500.02, 0.00, 0.00, 0.00
173, -187500.02, -187500.02, 960.57, -187500.02, -187500.02, -187500.02, -187500.02, -187500.02, 0.00, 0.00, 0.00
174, -187500.02, -187500.02, 955.74, -187500.02, -187500.02, -187500.02, -187500.02, -187500.02, 0.00, 0.00, 0.00
175, -187500.02, -187500.02, 949.68, -187500.02, -187500.02, -187500.02, -187500.02, -187500.02, -0.02, 0.01, 1.03
176, -187500.02, -187500.02, 956.50, -187500.02, -187500.02, -187500.02, -187500.02, -187500.02, 0.00, 0.00, 0.00
177, -187500.02, -187500.02, 969.26, -187500.02, -187500.02, -187500.02, -187500.02, -187500.02, 0.00, 0.00, 0.00
178, -187500.02, -187500.02, 962.02, -187500.02, -187500.02, -187500.02, -187500.02, -187500.02, 0.00, 0.00, 0.00
179, -187500.02, -187500.02, 947.74, -187500.02, -187500.02, -187500.02, -187500.02, -187500.02, 0.00, 0.00, 0.00
180, -187500.02, -187500.02, 954.73, -187500.02, -187500.02, -187500.02, -187500.02, -187500.02, 0.00, 0.00, 0.00
181, -187500.02, -187500.02, 970.31, -187500.02, -187500.02, -187500.02, -187500.02, -187500.02, 0.00, 0.00, 0.00
182, -187500.02, -187500.02, 966.15, -187500.02, -187500.02, -187500.02, -187500.02, -187500.02, 0.00, 0.00, 0.00
183, -187500.02, -187500.02, 958.47, -187500.02, -187500.02, -187500.02, -187500.02, -187500.02, 0.00, 0.00, 0.00
184, -187500.02, -187500.02, 954.80, -187500.02, -187500.02, -187500.02, -187500.02, -187500.02, 0.00, 0.00, 0.00
185, -187500.02, -187500.02, 981.49, -187500.02, -187500.02, -187500.02, -187500.02, -187500.02, -0.02, 0.01, 1.04
186, -187500.02, -187500.02, 979.70, -187500.02, -187500.02, -187500.02, -187500.02, -187500.02, 0.00, 0.00, 0.00
187, -187500.02, -187500.02, 968.26, -187500.02, -187500.02, -187500.02, -187500.02, -187500.02, 0.00, 0.00, 0.00
188, -187500.02, -187500.02, 972.50, -187500.02, -187500.02, -187500.02, -187500.02, -187500.02, 0.00, 0.00, 0.00
189, -187500.02, -187500.02, 991.01, -187500.02, -187500.02, -187500.02, -187500.02, -187500.02, 0.00, 0.00, 0.00
190, -187500.02, -187500.02, 990.00, -187500.02, -187500.02, -187500.02, -187500.02, -187500.02, 0.00, 0.00, 0.00
191, -187500.02, -187500.02, 981.22, -187500.02, -187500.02, -187500.02, -187500.02, -187500.02, 0.00, 0.00, 0.00
192, -187500.02, -187500.02, 967.67, -187500.02, -187500.02, -187500.02, -187500.02, -187500.02, 0.00, 0.00, 0.00
193, -187500.02, -187500.02, 976.03, -187500.02, -187500.02, -187500.02, -187500.02, -187500.02, 0.00, 0.00, 0.00
194, -187500.02, -187500.02, 986.65, -187500.02, -187500.02, -187500.02, -187500.02, -187500.02, 0.00, 0.00, 0.00
195, -187500.02, -187500.02, 979.99, -187500.02, -187500.02, -187500.02, -187500.02, -187500.02, 0.00, 0.00, 0.00
196, -187500.02, -187500.02, 968.48, -187500.02, -187500.02, -187500.02, -187500.02, -187500.02, -0.02, 0.01, 1.04
197, -187500.02, -187500.02, 977.24, -187500.02, -187500.02, -187500.02, -187500.02, -187500.02, 0.00, 0.00, 0.00
198, -187500.02, -187500.02, 993.49, -187500.02, -187500.02, -187500.02, -187500.02, -187500.02, 0.00, 0.00, 0.00
199, -187500.02, -187500.02, 990.05, -187500.02, -187500.02, -187500.02, -187500.02, -187500.02, 0.00, 0.00, 0.00
200, -187500.02, -187500.02, 976.73, -187500.02, -187500.02, -187500.02, -187500.02, -187500.02, 0.00, 0.00, 0.00
201, -187500.02, -187500.02, 980.95, -187500.02, -187500.02, -187500.02, -187500.02, -187500.02, 0.00, 0.00, 0.00
202, -187500.02, -187500.02, 994.97, -187500.02, -187500.02, -187500.02, -187500.02, -187500.02, 0.00, 0.00, 0.00
203, -187500.02, -187500.02, 992.71, -187500.02, -187500.02, -187500.02, -187500.02, -187500.02, 0.00, 0.00, 0.00
204, -187500.02, -187500.02, 977.75, -187500.02, -187500.02, -187500.02, -187500.02, -187500.02, 0.00, 0.00, 0.00
205, -187500.02, -187500.02, 979.88, -187500.02, -187500.02, -187500.02, -187500.02, -187500.02, 0.00, 0.00, 0.00
206, -187500.02, -187500.02, 1002.57, -187500.02, -187500.02, -187500.02, -187500.02, -187500.02, -0.02, 0.01, 1.03
207, -187500.02, -187500.02, 1000.55, -187500.02, -187500.02, -187500.02, -187500.02, -187500.02, 0.00, 0.00, 0.00
208, -187500.02, -187500.02, 982.05, -187500.02, -187500.02, -187500.02, -187500.02, -187500.02, 0.00, 0.00, 0.00
209, -187500.02, -187500.02, 981.49, -187500.02, -187500.02, -187500.02, -187500.02, -187500.02, 0.00, 0.00, 0.00
210, -187500.02, -187500.02, 998.47, -187500.02, -187500.02, -187500.02, -187500.02, -187500.02, 0.00, 0.00, 0.00
211, -187500.02, -187500.02, 992.06, -187500.02, -187500.02, -187500.02, -187500.02, -187500.02, 0.00, 0.00, 0.00
212, -187500.02, -187500.02, 990.14, -187500.02, -187500.02, -187500.02, -187500.02, -187500.02, 0.00, 0.00, 0.00
213, -187500.02, -187500.02, 987.52, -187500.02, -187500.02, -187500.02, -187500.02, -187500.02, 0.00, 0.00, 0.00
214, -187500.02, -187500.02, 999.03, -187500.02, -187500.02, -187500.02, -187500.02, -187500.02, 0.00, 0.00, 0.00
215, -187500.02, -187500.02, 1000.64, -187500.02, -187500.02, -187500.02, -187500.02, -187500.02, 0.00, 0.00, 0.00
216, -187500.02, -187500.02, 993.45, -187500.02, -187500.02, -187500.02, -187500.02, -187500.02, -0.02, 0.01, 1.03
217, -187500.02, -187500.02, 984.12, -187500.02, -187500.02, -187500.02, -187500.02, -187500.02, 0.00, 0.00, 0.00
218, -187500.02, -187500.02, 999.59, -187500.02, -187500.02, -187500.02, -187500.02, -187500.02, 0.00, 0.00, 0.00
219, -187500.02, -187500.02, 1013.92, -187500.02, -187500.02, -187500.02, -187500.02, -187500.02, 0.00, 0.00, 0.00
220, -187500.02, -187500.02, 998.54, -187500.02, -187500.02, -187500.02, -187500.02, -187500.02, 0.00, 0.00, 0.00
221, -187500.02, -187500.02, 991.48, -187500.02, -187500.02, -187500.02, -187500.02, -187500.02, 0.00, 0.00, 0.00
222, -187500.02, -187500.02, 997.98, -187500.02, -187500.02, -187500.02, -187500.02, -187500.02, 0.00, 0.00, 0.00
223, -187500.02, -187500.02, 1014.37, -187500.02, -187500.02, -187500.02, -187500.02, -187500.02, 0.00, 0.00, 0.00
224, -187500.02, -187500.02, 1003.50, -187500.02, -187500.02, -187500.02, -187500.02, -187500.02, 0.00, 0.00, 0.00
225, -187500.02, -187500.02, 988.66, -187500.02, -187500.02, -187500.02, -187500.02, -187500.02, 0.00, 0.00, 0.00
226, -187500.02, -187500.02, 996.46, -187500.02, -187500.02, -187500.02, -187500.02, -187500.02, -0.02, 0.01, 1.03
227, -187500.02, -187500.02, 1014.30, -187500.02, -187500.02, -187500.02, -187500.02, -187500.02, 0.00, 0.00, 0.00
228, -187500.02, -187500.02, 1009.36, -187500.02, -187500.02, -187500.02, -187500.02, -187500.02, 0.00, 0.00, 0.00
229, -187500.02, -187500.02, 997.13, -187500.02, -187500.02, -187500.02, -187500.02, -187500.02, 0.00, 0.00, 0.00
230, -187500.02, -187500.02, 995.81, -187500.02, -187500.02, -187500.02, -187500.02, -187500.02, 0.00, 0.00, 0.00
231, -187500.02, -187500.02, 1015.80, -187500.02, -187500.02, -187500.02, -187500.02, -187500.02, 0.00, 0.00, 0.00
232, -187500.02, -187500.02, 1011.86, -187500.02, -187500.02, -187500.02, -187500.02, -187500.02, 0.00, 0.00, 0.00
233, -187500.02, -187500.02, 998.23, -187500.02, -187500.02, -187500.02, -187500.02, -187500.02, 0.00, 0.00, 0.00
234, -187500.02, -187500.02, 1000.87, -187500.02, -187500.02, -187500.02, -187500.02, -187500.02, 0.00, 0.00, 0.00
235, -187500.02, -187500.02, 1024.69, -187500.02, -187500.02, -187500.02, -187500.02, -187500.02, 0.00, 0.00, 0.00
236, -187500.02, -187500.02, 1022.99, -187500.02, -187500.02, -187500.02, -187500.02, -187500.02, -0.02, 0.01, 1.03
237, -187500.02, -187500.02, 1012.15, -187500.02, -187500.02, -187500.02, -187500.02, -187500.02, 0.00, 0.00, 0.00
238, -187500.02, -187500.02, 1000.44, -187500.02, -187500.02, -187500.02, -187500.02, -187500.02, 0.00, 0.00, 0.00
239, -187500.02, -187500.02, 1020.04, -187500.02, -187500.02, -187500.02, -187500.02, -187500.02, 0.00, 0.00, 0.00
240, -187500.02, -187500.02, 1022.37, -187500.02, -187500.02, -187500.02, -187500.02, -187500.02, 0.00, 0.00, 0.00
241, -187500.02, -187500.02, 1016.38, -187500.02, -187500.02, -187500.02, -187500.02, -187500.02, 0.00, 0.00, 0.00
242, -187500.02, -187500.02, 1008.91, -187500.02, -187500.02, -187500.02, -187500.02, -187500.02, 0.00, 0.00, 0.00
243, -187500.02, -187500.02, 1014.08, -187500.02, -187500.02, -187500.02, -187500.02, -187500.02, 0.00, 0.00, 0.00
244, -187500.02, -187500.02, 1028.65, -187500.02, -187500.02, -187500.02, -187500.02, -187500.02, 0.00, 0.00, 0.00
245, -187500.02, -187500.02, 1026.12, -187500.02, -187500.02, -187500.02, -187500.02, -187500.02, 0.00, 0.00, 0.00
246, -187500.02, -187500.02, 1015.84, -187500.02, -187500.02, -187500.02, -187500.02, -187500.02, -0.02, 0.01, 1.03
247, -187500.02, -187500.02, 1018.93, -187500.02, -187500.02, -187500.02, -187500.02, -187500.02, 0.00, 0.00, 0.00
248, -187500.02, -187500.02, 1029.83, -187500.02, -187500.02, -187500.02, -187500.02, -187500.02, 0.00, 0.00, 0.00
249, -187500.02, -187500.02, 1024.05, -187500.02, -187500.02, -187500.02, -187500.02, -187500.02, 0.00, 0.00, 0.00
250, -187500.02, -187500.02, 1011.39, -187500.02, -187500.02, -187500.02, -187500.02, -187500.02, 0.00, 0.00, 0.00
251, -187500.02, -187500.02, 1016.74, -187500.02, -187500.02, -187500.02, -187500.02, -187500.02, 0.00, 0.00, 0.00
252, -187500.02, -187500.02, 1031.02, -187500.02, -187500.02, -187500.02, -187500.02, -187500.02, 0.00, 0.00, 0.00
253, -187500.02, -187500.02, 1025.97, -187500.02, -187500.02, -187500.02, -187500.02, -187500.02, 0.00, 0.00, 0.00
254, -187500.02, -187500.02, 1014.72, -187500.02, -187500.02, -187500.02, -187500.02, -187500.02, 0.00, 0.00, 0.00
255, -187500.02, -187500.02, 1026.84, -187500.02, -187500.02, -187500.02, -187500.02, -187500.02, 0.00, 0.00, 0.00
0, -187500.02, -187500.02, 1035.02, -187500.02, -187500.02, -187500.02, -187500.02, -187500.02, 0.00, 0.00, 0.00
1, -187500.02, -187500.02, 1033.25, -187500.02, -187500.02, -187500.02, -187500.02, -187500.02, -0.02, 0.01, 1.02
2, -187500.02, -187500.02, 1022.99, -187500.02, -187500.02, -187500.02, -187500.02, -187500.02, 0.00, 0.00, 0.00
3, -187500.02, -187500.02, 1021.77, -187500.02, -187500.02, -187500.02, -187500.02, -187500.02, 0.00, 0.00, 0.00
4, -187500.02, -187500.02, 1036.36, -187500.02, -187500.02, -187500.02, -187500.02, -187500.02, 0.00, 0.00, 0.00
5, -187500.02, -187500.02, 1033.88, -187500.02, -187500.02, -187500.02, -187500.02, -187500.02, 0.00, 0.00, 0.00
6, -187500.02, -187500.02, 1018.90, -187500.02, -187500.02, -187500.02, -187500.02, -187500.02, 0.00, 0.00, 0.00
7, -187500.02, -187500.02, 1015.33, -187500.02, -187500.02, -187500.02, -187500.02, -187500.02, 0.00, 0.00, 0.00
8, -187500.02, -187500.02, 1036.41, -187500.02, -187500.02, -187500.02, -187500.02, -187500.02, 0.00, 0.00, 0.00
9, -187500.02, -187500.02, 1036.16, -187500.02, -187500.02, -187500.02, -187500.02, -187500.02, 0.00, 0.00, 0.00
10, -187500.02, -187500.02, 1028.72, -187500.02, -187500.02, -187500.02, -187500.02, -187500.02, 0.00, 0.00, 0.00
11, -187500.02, -187500.02, 1024.67, -187500.02, -187500.02, -187500.02, -187500.02, -187500.02, -0.02, 0.00, 1.02
12, -187500.02, -187500.02, 1031.29, -187500.02, -187500.02, -187500.02, -187500.02, -187500.02, 0.00, 0.00, 0.00
13, -187500.02, -187500.02, 1040.90, -187500.02, -187500.02, -187500.02, -187500.02, -187500.02, 0.00, 0.00, 0.00
14, -187500.02, -187500.02, 1034.13, -187500.02, -187500.02, -187500.02, -187500.02, -187500.02, 0.00, 0.00, 0.00
15, -187500.02, -187500.02, 1027.29, -187500.02, -187500.02, -187500.02, -187500.02, -187500.02, 0.00, 0.00, 0.00
16, -187500.02, -187500.02, 1022.99, -187500.02, -187500.02, -187500.02, -187500.02, -187500.02, 0.00, 0.00, 0.00
17, -187500.02, -187500.02, 1042.19, -187500.02, -187500.02, -187500.02, -187500.02, -187500.02, 0.00, 0.00, 0.00
18, -187500.02, -187500.02, 1035.62, -187500.02, -187500.02, -187500.02, -187500.02, -187500.02, 0.00, 0.00, 0.00
19, -187500.02, -187500.02, 1022.17, -187500.02, -187500.02, -187500.02, -187500.02, -187500.02, 0.00, 0.00, 0.00
20, -187500.02, -187500.02, 1021.94, -187500.02, -187500.02, -187500.02, -187500.02, -187500.02, 0.00, 0.00, 0.00
21, -187500.02, -187500.02, 1036.96, -187500.02, -187500.02, -187500.02, -187500.02, -187500.02, -0.02, 0.01, 1.02
22, -187500.02, -187500.02, 1033.92, -187500.02, -187500.02, -187500.02, -187500.02, -187500.02, 0.00, 0.00, 0.00
23, -187500.02, -187500.02, 1023.33, -187500.02, -187500.02, -187500.02, -187500.02, -187500.02, 0.00, 0.00, 0.00
24, -187500.02, -187500.02, 1020.98, -187500.02, -187500.02, -187500.02, -187500.02, -187500.02, 0.00, 0.00, 0.00
25, -187500.02, -187500.02, 1047.72, -187500.02, -187500.02, -187500.02, -187500.02, -187500.02, 0.00, 0.00, 0.00
26, -187500.02, -187500.02, 1048.70, -187500.02, -187500.02, -187500.02, -187500.02, -187500.02, 0.00, 0.00, 0.00
27, -187500.02, -187500.02, 1030.33, -187500.02, -187500.02, -187500.02, -187500.02, -187500.02, 0.00, 0.00, 0.00
28, -187500.02, -187500.02, 1025.19, -187500.02, -187500.02, -187500.02, -187500.02, -187500.02, 0.00, 0.00, 0.00
29, -187500.02, -187500.02, 1040.23, -187500.02, -187500.02, -187500.02, -187500.02, -187500.02, 0.00, 0.00, 0.00
30, -187500.02, -187500.02, 1044.79, -187500.02, -187500.02, -187500.02, -187500.02, -187500.02, 0.00, 0.00, 0.00
31, -187500.02, -187500.02, 1035.36, -187500.02, -187500.02, -187500.02, -187500.02, -187500.02, -0.02, 0.01, 1.03
32, -187500.02, -187500.02, 1027.69, -187500.02, -187500.02, -187500.02, -187500.02, -187500.02, 0.00, 0.00, 0.00
33, -187500.02, -187500.02, 1046.40, -187500.02, -187500.02, -187500.02, -187500.02, -187500.02, 0.00, 0.00, 0.00
34, -187500.02, -187500.02, 1053.37, -187500.02, -187500.02, -187500.02, -187500.02, -187500.02, 0.00, 0.00, 0.00
35, -187500.02, -187500.02, 1044.72, -187500.02, -187500.02, -187500.02, -187500.02, -187500.02, 0.00, 0.00, 0.00
36, -187500.02, -187500.02, 1031.91, -187500.02, -187500.02, -187500.02, -187500.02, -187500.02, 0.00, 0.00, 0.00
37, -187500.02, -187500.02, 1042.75, -187500.02, -187500.02, -187500.02, -187500.02, -187500.02, 0.00, 0.00, 0.00
38, -187500.02, -187500.02, 1052.28, -187500.02, -187500.02, -187500.02, -187500.02, -187500.02, 0.00, 0.00, 0.00
39, -187500.02, -187500.02, 1045.30, -187500.02, -187500.02, -187500.02, -187500.02, -187500.02, 0.00, 0.00, 0.00
40, -187500.02, -187500.02, 1037.97, -187500.02, -187500.02, -187500.02, -187500.02, -187500.02, 0.00, 0.00, 0.00
41, -187500.02, -187500.02, 1044.32, -187500.02, -187500.02, -187500.02, -187500.02, -187500.02, -0.02, 0.01, 1.03
42, -187500.02, -187500.02, 1055.25, -187500.02, -187500.02, -187500.02, -187500.02, -187500.02, 0.00, 0.00, 0.00
43, -187500.02, -187500.02, 1056.86, -187500.02, -187500.02, -187500.02, -187500.02, -187500.02, 0.00, 0.00, 0.00
44, -187500.02, -187500.02, 1042.40, -187500.02, -187500.02, -187500.02, -187500.02, -187500.02, 0.00, 0.00, 0.00
45, -187500.02, -187500.02, 1040.27, -187500.02, -187500.02, -187500.02, -187500.02, -187500.02, 0.00, 0.00, 0.00
46, -187500.02, -187500.02, 1069.60, -187500.02, -187500.02, -187500.02, -187500.02, -187500.02, 0.00, 0.00, 0.00
47, -187500.02, -187500.02, 1061.95, -187500.02, -187500.02, -187500.02, -187500.02, -187500.02, 0.00, 0.00, 0.00
48, -187500.02, -187500.02, 1055.90, -187500.02, -187500.02, -187500.02, -187500.02, -187500.02, 0.00, 0.00, 0.00
49, -187500.02, -187500.02, 1049.73, -187500.02, -187500.02, -187500.02, -187500.02, -187500.02, 0.00, 0.00, 0.00
50, -187500.02, -187500.02, 1064.52, -187500.02, -187500.02, -187500.02, -187500.02, -187500.02, 0.00, 0.00, 0.00
51, -187500.02, -187500.02, 1065.73, -187500.02, -187500.02, -187500.02, -187500.02, -187500.02, -0.02, 0.01, 1.03
52, -187500.02, -187500.02, 1055.81, -187500.02, -187500.02, -187500.02, -187500.02, -187500.02, 0.00, 0.00, 0.00
53, -187500.02, -187500.02, 1043.85, -187500.02, -187500.02, -187500.02, -187500.02, -187500.02, 0.00, 0.00, 0.00
54, -187500.02, -187500.02, 1062.98, -187500.02, -187500.02, -187500.02, -187500.02, -187500.02, 0.00, 0.00, 0.00
55, -187500.02, -187500.02, 1075.57, -187500.02, -187500.02, -187500.02, -187500.02, -187500.02, 0.00, 0.00, 0.00
56, -187500.02, -187500.02, 1060.39, -187500.02, -187500.02, -187500.02, -187500.02, -187500.02, 0.00, 0.00, 0.00
57, -187500.02, -187500.02, 1052.23, -187500.02, -187500.02, -187500.02, -187500.02, -187500.02, 0.00, 0.00, 0.00
58, -187500.02, -187500.02, 1067.50, -187500.02, -187500.02, -187500.02, -187500.02, -187500.02, 0.00, 0.00, 0.00
59, -187500.02, -187500.02, 1084.77, -187500.02, -187500.02, -187500.02, -187500.02, -187500.02, 0.00, 0.00, 0.00
60, -187500.02, -187500.02, 1069.75, -187500.02, -187500.02, -187500.02, -187500.02, -187500.02, 0.00, 0.00, 0.00
61, -187500.02, -187500.02, 1058.29, -187500.02, -187500.02, -187500.02, -187500.02, -187500.02, 0.00, 0.00, 0.00
62, -187500.02, -187500.02, 1067.63, -187500.02, -187500.02, -187500.02, -187500.02, -187500.02, -0.03, 0.00, 1.04
63, -187500.02, -187500.02, 1079.59, -187500.02, -187500.02, -187500.02, -187500.02, -187500.02, 0.00, 0.00, 0.00
64, -187500.02, -187500.02, 1070.40, -187500.02, -187500.02, -187500.02, -187500.02, -187500.02, 0.00, 0.00, 0.00
65, -187500.02, -187500.02, 1062.69, -187500.02, -187500.02, -187500.02, -187500.02, -187500.02, 0.00, 0.00, 0.00
66, -187500.02, -187500.02, 1068.03, -187500.02, -187500.02, -187500.02, -187500.02, -187500.02, 0.00, 0.00, 0.00
67, -187500.02, -187500.02, 1080.57, -187500.02, -187500.02, -187500.02, -187500.02, -187500.02, 0.00, 0.00, 0.00
68, -187500.02, -187500.02, 1077.47, -187500.02, -187500.02, -187500.02, -187500.02, -187500.02, 0.00, 0.00, 0.00
69, -187500.02, -187500.02, 1065.64, -187500.02, -187500.02, -187500.02, -187500.02, -187500.02, 0.00, 0.00, 0.00
70, -187500.02, -187500.02, 1064.84, -187500.02, -187500.02, -187500.02, -187500.02, -187500.02, 0.00, 0.00, 0.00
71, -187500.02, -187500.02, 1084.71, -187500.02, -187500.02, -187500.02, -187500.02, -187500.02, 0.00, 0.00, 0.00
72, -187500.02, -187500.02, 1079.61, -187500.02, -187500.02, -187500.02, -187500.02, -187500.02, -0.03, 0.00, 1.03
73, -187500.02, -187500.02, 1071.56, -187500.02, -187500.02, -187500.02, -187500.02, -187500.02, 0.00, 0.00, 0.00
74, -187500.02, -187500.02, 1066.83, -187500.02, -187500.02, -187500.02, -187500.02, -187500.02, 0.00, 0.00, 0.00
75, -187500.02, -187500.02, 1085.47, -187500.02, -187500.02, -187500.02, -187500.02, -187500.02, 0.00, 0.00, 0.00
76, -187500.02, -187500.02, 1088.73, -187500.02, -187500.02, -187500.02, -187500.02, -187500.02, 0.00, 0.00, 0.00
77, -187500.02, -187500.02, 1072.01, -187500.02, -187500.02, -187500.02, -187500.02, -187500.02, 0.00, 0.00, 0.00
78, -187500.02, -187500.02, 1060.81, -187500.02, -187500.02, -187500.02, -187500.02, -187500.02, 0.00, 0.00, 0.00
79, -187500.02, -187500.02, 1091.91, -187500.02, -187500.02, -187500.02, -187500.02, -187500.02, 0.00, 0.00, 0.00
80, -187500.02, -187500.02, 1094.34, -187500.02, -187500.02, -187500.02, -187500.02, -187500.02, 0.00, 0.00, 0.00
81, -187500.02, -187500.02, 1079.34, -187500.02, -187500.02, -187500.02, -187500.02, -187500.02, 0.00, 0.00, 0.00
82, -187500.02, -187500.02, 1075.59, -187500.02, -187500.02, -187500.02, -187500.02, -187500.02, -0.03, 0.00, 1.02
83, -187500.02, -187500.02, 1085.38, -187500.02, -187500.02, -187500.02, -187500.02, -187500.02, 0.00, 0.00, 0.00
84, -187500.02, -187500.02, 1092.91, -187500.02, -187500.02, -187500.02, -187500.02, -187500.02, 0.00, 0.00, 0.00
85, -187500.02, -187500.02, 1081.51, -187500.02, -187500.02, -187500.02, -187500.02, -187500.02, 0.00, 0.00, 0.00
86, -187500.02, -187500.02, 1074.07, -187500.02, -187500.02, -187500.02, -187500.02, -187500.02, 0.00, 0.00, 0.00
87, -187500.02, -187500.02, 1085.13, -187500.02, -187500.02, -187500.02, -187500.02, -187500.02, 0.00, 0.00, 0.00
88, -187500.02, -187500.02, 1098.32, -187500.02, -187500.02, -187500.02, -187500.02, -187500.02, 0.00, 0.00, 0.00
89, -187500.02, -187500.02, 1095.66, -187500.02, -187500.02, -187500.02, -187500.02, -187500.02, 0.00, 0.00, 0.00
90, -187500.02, -187500.02, 1078.11, -187500.02, -187500.02, -187500.02, -187500.02, -187500.02, 0.00, 0.00, 0.00
91, -187500.02, -187500.02, 1079.25, -187500.02, -187500.02, -187500.02, -187500.02, -187500.02, 0.00, 0.00, 0.00
92, -187500.02, -187500.02, 1100.00, -187500.02, -187500.02, -187500.02, -187500.02, -187500.02, -0.02, 0.01, 1.02
93, -187500.02, -187500.02, 1096.53, -187500.02, -187500.02, -187500.02, -187500.02, -187500.02, 0.00, 0.00, 0.00
94, -187500.02, -187500.02, 1089.54, -187500.02, -187500.02, -187500.02, -187500.02, -187500.02, 0.00, 0.00, 0.00
95, -187500.02, -187500.02, 1084.08, -187500.02, -187500.02, -187500.02, -187500.02, -187500.02, 0.00, 0.00, 0.00
96, -187500.02, -187500.02, 1095.88, -187500.02, -187500.02, -187500.02, -187500.02, -187500.02, 0.00, 0.00, 0.00
97, -187500.02, -187500.02, 1094.65, -187500.02, -187500.02, -187500.02, -187500.02, -187500.02, 0.00, 0.00, 0.00
98, -187500.02, -187500.02, 1090.90, -187500.02, -187500.02, -187500.02, -187500.02, -187500.02, 0.00, 0.00, 0.00
99, -187500.02, -187500.02, 1093.72, -187500.02, -187500.02, -187500.02, -187500.02, -187500.02, 0.00, 0.00, 0.00
100, -187500.02, -187500.02, 1100.56, -187500.02, -187500.02, -187500.02, -187500.02, -187500.02, 0.00, 0.00, 0.00
101, -187500.02, -187500.02, 1104.04, -187500.02, -187500.02, -187500.02, -187500.02, -187500.02, 0.00, 0.00, 0.00
102, -187500.02, -187500.02, 1089.92, -187500.02, -187500.02, -187500.02, -187500.02, -187500.02, -0.03, 0.01, 1.02
103, -187500.02, -187500.02, 1087.32, -187500.02, -187500.02, -187500.02, -187500.02, -187500.02, 0.00, 0.00, 0.00
104, -187500.02, -187500.02, 1104.42, -187500.02, -187500.02, -187500.02, -187500.02, -187500.02, 0.00, 0.00, 0.00
105, -187500.02, -187500.02, 1116.85, -187500.02, -187500.02, -187500.02, -187500.02, -187500.02, 0.00, 0.00, 0.00
106, -187500.02, -187500.02, 1098.48, -187500.02, -187500.02, -187500.02, -187500.02, -187500.02, 0.00, 0.00, 0.00
107, -187500.02, -187500.02, 1088.66, -187500.02, -187500.02, -187500.02, -187500.02, -187500.02, 0.00, 0.00, 0.00
108, -187500.02, -187500.02, 1106.05, -187500.02, -187500.02, -187500.02, -187500.02, -187500.02, 0.00, 0.00, 0.00
109, -187500.02, -187500.02, 1116.96, -187500.02, -187500.02, -187500.02, -187500.02, -187500.02, 0.00, 0.00, 0.00
110, -187500.02, -187500.02, 1108.91, -187500.02, -187500.02, -187500.02, -187500.02, -187500.02, 0.00, 0.00, 0.00
111, -187500.02, -187500.02, 1098.10, -187500.02, -187500.02, -187500.02, -187500.02, -187500.02, 0.00, 0.00, 0.00
112, -187500.02, -187500.02, 1103.68, -187500.02, -187500.02, -187500.02, -187500.02, -187500.02, -0.02, 0.01, 1.03
113, -187500.02, -187500.02, 1118.19, -187500.02, -187500.02, -187500.02, -187500.02, -187500.02, 0.00, 0.00, 0.00
114, -187500.02, -187500.02, 1111.64, -187500.02, -187500.02, -187500.02, -187500.02, -187500.02, 0.00, 0.00, 0.00
115, -187500.02, -187500.02, 1103.30, -187500.02, -187500.02, -187500.02, -187500.02, -187500.02, 0.00, 0.00, 0.00
116, -187500.02, -187500.02, 1103.68, -187500.02, -187500.02, -187500.02, -187500.02, -187500.02, 0.00, 0.00, 0.00
117, -187500.02, -187500.02, 1125.28, -187500.02, -187500.02, -187500.02, -187500.02, -187500.02, 0.00, 0.00, 0.00
118, -187500.02, -187500.02, 1122.01, -187500.02, -187500.02, -187500.02, -187500.02, -187500.02, 0.00, 0.00, 0.00
119, -187500.02, -187500.02, 1108.04, -187500.02, -187500.02, -187500.02, -187500.02, -187500.02, 0.00, 0.00, 0.00
120, -187500.02, -187500.02, 1104.89, -187500.02, -187500.02, -187500.02, -187500.02, -187500.02, 0.00, 0.00, 0.00
121, -187500.02, -187500.02, 1122.08, -187500.02, -187500.02, -187500.02, -187500.02, -187500.02, 0.00, 0.00, 0.00
122, -187500.02, -187500.02, 1126.42, -187500.02, -187500.02, -187500.02, -187500.02, -187500.02, -0.02, 0.01, 1.03
123, -187500.02, -187500.02, 1115.53, -187500.02, -187500.02, -187500.02, -187500.02, -187500.02, 0.00, 0.00, 0.00
124, -187500.02, -187500.02, 1107.89, -187500.02, -187500.02, -187500.02, -187500.02, -187500.02, 0.00, 0.00, 0.00
125, -187500.02, -187500.02, 1122.08, -187500.02, -187500.02, -187500.02, -187500.02, -187500.02, 0.00, 0.00, 0.00
126, -187500.02, -187500.02, 1131.27, -187500.02, -187500.02, -187500.02, -187500.02, -187500.02, 0.00, 0.00, 0.00
127, -187500.02, -187500.02, 1117.27, -187500.02, -187500.02, -187500.02, -187500.02, -187500.02, 0.00, 0.00, 0.00
128, -187500.02, -187500.02, 1108.67, -187500.02, -187500.02, -187500.02, -187500.02, -187500.02, 0.00, 0.00, 0.00
129, -187500.02, -187500.02, 1118.59, -187500.02, -187500.02, -187500.02, -187500.02, -187500.02, 0.00, 0.00, 0.00
130, -187500.02, -187500.02, 1125.48, -187500.02, -187500.02, -187500.02, -187500.02, -187500.02, 0.00, 0.00, 0.00
131, -187500.02, -187500.02, 1122.53, -187500.02, -187500.02, -187500.02, -187500.02, -187500.02, 0.00, 0.00, 0.00
132, -187500.02, -187500.02, 1113.30, -187500.02, -187500.02, -187500.02, -187500.02, -187500.02, 0.00, 0.00, 0.00
133, -187500.02, -187500.02, 1115.66, -187500.02, -187500.02, -187500.02, -187500.02, -187500.02, -0.02, 0.01, 1.02
134, -187500.02, -187500.02, 1127.33, -187500.02, -187500.02, -187500.02, -187500.02, -187500.02, 0.00, 0.00, 0.00
135, -187500.02, -187500.02, 1117.01, -187500.02, -187500.02, -187500.02, -187500.02, -187500.02, 0.00, 0.00, 0.00
136, -187500.02, -187500.02, 1117.77, -187500.02, -187500.02, -187500.02, -187500.02, -187500.02, 0.00, 0.00, 0.00
137, -187500.02, -187500.02, 1120.31, -187500.02, -187500.02, -187500.02, -187500.02, -187500.02, 0.00, 0.00, 0.00
138, -187500.02, -187500.02, 1131.87, -187500.02, -187500.02, -187500.02, -187500.02, -187500.02, 0.00, 0.00, 0.00
139, -187500.02, -187500.02, 1126.30, -187500.02, -187500.02, -187500.02, -187500.02, -187500.02, 0.00, 0.00, 0.00
140, -187500.02, -187500.02, 1118.97, -187500.02, -187500.02, -187500.02, -187500.02, -187500.02, 0.00, 0.00, 0.00
141, -187500.02, -187500.02, 1119.13, -187500.02, -187500.02, -187500.02, -187500.02, -187500.02, 0.00, 0.00, 0.00
142, -187500.02, -187500.02, 1134.46, -187500.02, -187500.02, -187500.02, -187500.02, -187500.02, 0.00, 0.00, 0.00
143, -187500.02, -187500.02, 1129.68, -187500.02, -187500.02, -187500.02, -187500.02, -187500.02, -0.02, 0.01, 1.02
144, -187500.02, -187500.02, 1121.39, -187500.02, -187500.02, -187500.02, -187500.02, -187500.02, 0.00, 0.00, 0.00
145, -187500.02, -187500.02, 1120.60, -187500.02, -187500.02, -187500.02, -187500.02, -187500.02, 0.00, 0.00, 0.00
146, -187500.02, -187500.02, 1137.06, -187500.02, -187500.02, -187500.02, -187500.02, -187500.02, 0.00, 0.00, 0.00
147, -187500.02, -187500.02, 1140.54, -187500.02, -187500.02, -187500.02, -187500.02, -187500.02, 0.00, 0.00, 0.00
148, -187500.02, -187500.02, 1133.93, -187500.02, -187500.02, -187500.02, -187500.02, -187500.02, 0.00, 0.00, 0.00
149, -187500.02, -187500.02, 1122.82, -187500.02, -187500.02, -187500.02, -187500.02, -187500.02, 0.00, 0.00, 0.00
150, -187500.02, -187500.02, 1135.09, -187500.02, -187500.02, -187500.02, -187500.02, -187500.02, 0.00, 0.00, 0.00
151, -187500.02, -187500.02, 1137.39, -187500.02, -187500.02, -187500.02, -187500.02, -187500.02, 0.00, 0.00, 0.00
152, -187500.02, -187500.02, 1128.70, -187500.02, -187500.02, -187500.02, -187500.02, -187500.02, 0.00, 0.00, 0.00
153, -187500.02, -187500.02, 1124.61, -187500.02, -187500.02, -187500.02, -187500.02, -187500.02, -0.02, 0.01, 1.03
154, -187500.02, -187500.02, 1134.49, -187500.02, -187500.02, -187500.02, -187500.02, -187500.02, 0.00, 0.00, 0.00
155, -187500.02, -187500.02, 1146.51, -187500.02, -187500.02, -187500.02, -187500.02, -187500.02, 0.00, 0.00, 0.00
156, -187500.02, -187500.02, 1133.64, -187500.02, -187500.02, -187500.02, -187500.02, -187500.02, 0.00, 0.00, 0.00
157, -187500.02, -187500.02, 1119.04, -187500.02, -187500.02, -187500.02, -187500.02, -187500.02, 0.00, 0.00, 0.00
158, -187500.02, -187500.02, 1125.54, -187500.02, -187500.02, -187500.02, -187500.02, -187500.02, 0.00, 0.00, 0.00
159, -187500.02, -187500.02, 1142.96, -187500.02, -187500.02, -187500.02, -187500.02, -187500.02, 0.00, 0.00, 0.00
160, -187500.02, -187500.02, 1132.85, -187500.02, -187500.02, -187500.02, -187500.02, -187500.02, 0.00, 0.00, 0.00
161, -187500.02, -187500.02, 1129.32, -187500.02, -187500.02, -187500.02, -187500.02, -187500.02, 0.00, 0.00, 0.00
162, -187500.02, -187500.02, 1122.44, -187500.02, -187500.02, -187500.02, -187500.02, -187500.02, 0.00, 0.00, 0.00
163, -187500.02, -187500.02, 1136.16, -187500.02, -187500.02, -187500.02, -187500.02, -187500.02, -0.02, 0.01, 1.03
164, -187500.02, -187500.02, 1143.27, -187500.02, -187500.02, -187500.02, -187500.02, -187500.02, 0.00, 0.00, 0.00
165, -187500.02, -187500.02, 1131.67, -187500.02, -187500.02, -187500.02, -187500.02, -187500.02, 0.00, 0.00, 0.00
166, -187500.02, -187500.02, 1128.87, -187500.02, -187500.02, -187500.02, -187500.02, -187500.02, 0.00, 0.00, 0.00
167, -187500.02, -187500.02, 1145.08, -187500.02, -187500.02, -187500.02, -187500.02, -187500.02, 0.00, 0.00, 0.00
168, -187500.02, -187500.02, 1143.63, -187500.02, -187500.02, -187500.02, -187500.02, -187500.02, 0.00, 0.00, 0.00
169, -187500.02, -187500.02, 1138.24, -187500.02, -187500.02, -187500.02, -187500.02, -187500.02, 0.00, 0.00, 0.00
170, -187500.02, -187500.02, 1125.01, -187500.02, -187500.02, -187500.02, -187500.02, -187500.02, 0.00, 0.00, 0.00
171, -187500.02, -187500.02, 1144.14, -187500.02, -187500.02, -187500.02, -187500.02, -187500.02, 0.00, 0.00, 0.00
172, -187500.02, -187500.02, 1152.14, -187500.02, -187500.02, -187500.02, -187500.02, -187500.02, 0.00, 0.00, 0.00
173, -187500.02, -187500.02, 1141.75, -187500.02, -187500.02, -187500.02, -187500.02, -187500.02, -0.02, 0.01, 1.03
174, -187500.02, -187500.02, 1128.94, -187500.02, -187500.02, -187500.02, -187500.02, -187500.02, 0.00, 0.00, 0.00
175, -187500.02, -187500.02, 1150.98, -187500.02, -187500.02, -187500.02, -187500.02, -187500.02, 0.00, 0.00, 0.00
176, -187500.02, -187500.02, 1157.13, -187500.02, -187500.02, -187500.02, -187500.02, -187500.02, 0.00, 0.00, 0.00
177, -187500.02, -187500.02, 1142.29, -187500.02, -187500.02, -187500.02, -187500.02, -187500.02, 0.00, 0.00, 0.00
178, -187500.02, -187500.02, 1138.82, -187500.02, -187500.02, -187500.02, -187500.02, -187500.02, 0.00, 0.00, 0.00
179, -187500.02, -187500.02, 1144.88, -187500.02, -187500.02, -187500.02, -187500.02, -187500.02, 0.00, 0.00, 0.00
180, -187500.02, -187500.02, 1160.23, -187500.02, -187500.02, -187500.02, -187500.02, -187500.02, 0.00, 0.00, 0.00
181, -187500.02, -187500.02, 1148.95, -187500.02, -187500.02, -187500.02, -187500.02, -187500.02, 0.00, 0.00, 0.00
182, -187500.02, -187500.02, 1136.43, -187500.02, -187500.02, -187500.02, -187500.02, -187500.02, 0.00, 0.00, 0.00
183, -187500.02, -187500.02, 1140.81, -187500.02, -187500.02, -187500.02, -187500.02, -187500.02, -0.02, 0.01, 1.03
184, -187500.02, -187500.02, 1157.33, -187500.02, -187500.02, -187500.02, -187500.02, -187500.02, 0.00, 0.00, 0.00
185, -187500.02, -187500.02, 1155.99, -187500.02, -187500.02, -187500.02, -187500.02, -187500.02, 0.00, 0.00, 0.00
186, -187500.02, -187500.02, 1148.43, -187500.02, -187500.02, -187500.02, -187500.02, -187500.02, 0.00, 0.00, 0.00
187, -187500.02, -187500.02, 1145.24, -187500.02, -187500.02, -187500.02, -187500.02, -187500.02, 0.00, 0.00, 0.00
188, -187500.02, -187500.02, 1166.90, -187500.02, -187500.02, -187500.02, -187500.02, -187500.02, 0.00, 0.00, 0.00
189, -187500.02, -187500.02, 1166.58, -187500.02, -187500.02, -187500.02, -187500.02, -187500.02, 0.00, 0.00, 0.00
190, -187500.02, -187500.02, 1154.71, -187500.02, -187500.02, -187500.02, -187500.02, -187500.02, 0.00, 0.00, 0.00
191, -187500.02, -187500.02, 1150.44, -187500.02, -187500.02, -187500.02, -187500.02, -187500.02, 0.00, 0.00, 0.00
192, -187500.02, -187500.02, 1170.40, -187500.02, -187500.02, -187500.02, -187500.02, -187500.02, 0.00, 0.00, 0.00
193, -187500.02, -187500.02, 1168.53, -187500.02, -187500.02, -187500.02, -187500.02, -187500.02, 0.00, 0.00, 0.00
194, -187500.02, -187500.02, 1160.39, -187500.02, -187500.02, -187500.02, -187500.02, -187500.02, -0.02, 0.01, 1.03
195, -187500.02, -187500.02, 1148.83, -187500.02, -187500.02, -187500.02, -187500.02, -187500.02, 0.00, 0.00, 0.00
196, -187500.02, -187500.02, 1162.07, -187500.02, -187500.02, -187500.02, -187500.02, -187500.02, 0.00, 0.00, 0.00
197, -187500.02, -187500.02, 1171.25, -187500.02, -187500.02, -187500.02, -187500.02, -187500.02, 0.00, 0.00, 0.00
198, -187500.02, -187500.02, 1157.98, -187500.02, -187500.02, -187500.02, -187500.02, -187500.02, 0.00, 0.00, 0.00
199, -187500.02, -187500.02, 1152.03, -187500.02, -187500.02, -187500.02, -187500.02, -187500.02, 0.00, 0.00, 0.00
200, -187500.02, -187500.02, 1167.48, -187500.02, -187500.02, -187500.02, -187500.02, -187500.02, 0.00, 0.00, 0.00
201, -187500.02, -187500.02, 1177.09, -187500.02, -187500.02, -187500.02, -187500.02, -187500.02, 0.00, 0.00, 0.00
202, -187500.02, -187500.02, 1165.26, -187500.02, -187500.02, -187500.02, -187500.02, -187500.02, 0.00, 0.00, 0.00
203, -187500.02, -187500.02, 1154.47, -187500.02, -187500.02, -187500.02, -187500.02, -187500.02, 0.00, 0.00, 0.00
204, -187500.02, -187500.02, 1169.85, -187500.02, -187500.02, -187500.02, -187500.02, -187500.02, -0.03, 0.01, 1.03
205, -187500.02, -187500.02, 1176.62, -187500.02, -187500.02, -187500.02, -187500.02, -187500.02, 0.00, 0.00, 0.00
206, -187500.02, -187500.02, 1172.66, -187500.02, -187500.02, -187500.02, -187500.02, -187500.02, 0.00, 0.00, 0.00
207, -187500.02, -187500.02, 1159.70, -187500.02, -187500.02, -187500.02, -187500.02, -187500.02, 0.00, 0.00, 0.00
208, -187500.02, -187500.02, 1165.26, -187500.02, -187500.02, -187500.02, -187500.02, -187500.02, 0.00, 0.00, 0.00
209, -187500.02, -187500.02, 1179.23, -187500.02, -187500.02, -187500.02, -187500.02, -187500.02, 0.00, 0.00, 0.00
210, -187500.02, -187500.02, 1172.30, -187500.02, -187500.02, -187500.02, -187500.02, -187500.02, 0.00, 0.00, 0.00
211, -187500.02, -187500.02, 1162.87, -187500.02, -187500.02, -187500.02, -187500.02, -187500.02, 0.00, 0.00, 0.00
212, -187500.02, -187500.02, 1159.30, -187500.02, -187500.02, -187500.02, -187500.02, -187500.02, 0.00, 0.00, 0.00
213, -187500.02, -187500.02, 1175.39, -187500.02, -187500.02, -187500.02, -187500.02, -187500.02, 0.00, 0.00, 0.00
214, -187500.02, -187500.02, 1177.00, -187500.02, -187500.02, -187500.02, -187500.02, -187500.02, -0.02, 0.01, 1.03
215, -187500.02, -187500.02, 1168.59, -187500.02, -187500.02, -187500.02, -187500.02, -187500.02, 0.00, 0.00, 0.00
216, -187500.02, -187500.02, 1161.69, -187500.02, -187500.02, -187500.02, -187500.02, -187500.02, 0.00, 0.00, 0.00
217, -187500.02, -187500.02, 1178.61, -187500.02, -187500.02, -187500.02, -187500.02, -187500.02, 0.00, 0.00, 0.00
218, -187500.02, -187500.02, 1180.98, -187500.02, -187500.02, -187500.02, -187500.02, -187500.02, 0.00, 0.00, 0.00
219, -187500.02, -187500.02, 1171.57, -187500.02, -187500.02, -187500.02, -187500.02, -187500.02, 0.00, 0.00, 0.00
220, -187500.02, -187500.02, 1162.60, -187500.02, -187500.02, -187500.02, -187500.02, -187500.02, 0.00, 0.00, 0.00
221, -187500.02, -187500.02, 1179.08, -187500.02, -187500.02, -187500.02, -187500.02, -187500.02, 0.00, 0.00, 0.00
222, -187500.02, -187500.02, 1183.03, -187500.02, -187500.02, -187500.02, -187500.02, -187500.02, 0.00, 0.00, 0.00
223, -187500.02, -187500.02, 1179.19, -187500.02, -187500.02, -187500.02, -187500.02, -187500.02, 0.00, 0.00, 0.00
224, -187500.02, -187500.02, 1167.81, -187500.02, -187500.02, -187500.02, -187500.02, -187500.02, -0.02, 0.01, 1.03
225, -187500.02, -187500.02, 1178.61, -187500.02, -187500.02, -187500.02, -187500.02, -187500.02, 0.00, 0.00, 0.00
226, -187500.02, -187500.02, 1181.94, -187500.02, -187500.02, -187500.02, -187500.02, -187500.02, 0.00, 0.00, 0.00
227, -187500.02, -187500.02, 1166.67, -187500.02, -187500.02, -187500.02, -187500.02, -187500.02, 0.00, 0.00, 0.00
228, -187500.02, -187500.02, 1172.59, -187500.02, -187500.02, -187500.02, -187500.02, -187500.02, 0.00, 0.00, 0.00
229, -187500.02, -187500.02, 1180.53, -187500.02, -187500.02, -187500.02, -187500.02, -187500.02, 0.00, 0.00, 0.00
230, -187500.02, -187500.02, 1189.98, -187500.02, -187500.02, -187500.02, -187500.02, -187500.02, 0.00, 0.00, 0.00
231, -187500.02, -187500.02, 1181.49, -187500.02, -187500.02, -187500.02, -187500.02, -187500.02, 0.00, 0.00, 0.00
232, -187500.02, -187500.02, 1171.57, -187500.02, -187500.02, -187500.02, -187500.02, -187500.02, 0.00, 0.00, 0.00
233, -187500.02, -187500.02, 1179.41, -187500.02, -187500.02, -187500.02, -187500.02, -187500.02, 0.00, 0.00, 0.00
234, -187500.02, -187500.02, 1198.17, -187500.02, -187500.02, -187500.02, -187500.02, -187500.02, -0.02, 0.01, 1.03
235, -187500.02, -187500.02, 1186.74, -187500.02, -187500.02, -187500.02, -187500.02, -187500.02, 0.00, 0.00, 0.00
236, -187500.02, -187500.02, 1176.17, -187500.02, -187500.02, -187500.02, -187500.02, -187500.02, 0.00, 0.00, 0.00
237, -187500.02, -187500.02, 1175.63, -187500.02, -187500.02, -187500.02, -187500.02, -187500.02, 0.00, 0.00, 0.00
238, -187500.02, -187500.02, 1194.01, -187500.02, -187500.02, -187500.02, -187500.02, -187500.02, 0.00, 0.00, 0.00
239, -187500.02, -187500.02, 1191.33, -187500.02, -187500.02, -187500.02, -187500.02, -187500.02, 0.00, 0.00, 0.00
240, -187500.02, -187500.02, 1180.69, -187500.02, -187500.02, -187500.02, -187500.02, -187500.02, 0.00, 0.00, 0.00
241, -187500.02, -187500.02, 1171.99, -187500.02, -187500.02, -187500.02, -187500.02, -187500.02, 0.00, 0.00, 0.00
242, -187500.02, -187500.02, 1186.14, -187500.02, -187500.02, -187500.02, -187500.02, -187500.02, 0.00, 0.00, 0.00
243, -187500.02, -187500.02, 1201.03, -187500.02, -187500.02, -187500.02, -187500.02, -187500.02, 0.00, 0.00, 0.00
244, -187500.02, -187500.02, 1185.34, -187500.02, -187500.02, -187500.02, -187500.02, -187500.02, -0.02, 0.01, 1.03
245, -187500.02, -187500.02, 1178.27, -187500.02, -187500.02, -187500.02, -187500.02, -187500.02, 0.00, 0.00, 0.00
246, -187500.02, -187500.02, 1195.06, -187500.02, -187500.02, -187500.02, -187500.02, -187500.02, 0.00, 0.00, 0.00
247, -187500.02, -187500.02, 1207.42, -187500.02, -187500.02, -187500.02, -187500.02, -187500.02, 0.00, 0.00, 0.00
248, -187500.02, -187500.02, 1195.28, -187500.02, -187500.02, -187500.02, -187500.02, -187500.02, 0.00, 0.00, 0.00
249, -187500.02, -187500.02, 1187.10, -187500.02, -187500.02, -187500.02, -187500.02, -187500.02, 0.00, 0.00, 0.00
250, -187500.02, -187500.02, 1198.46, -187500.02, -187500.02, -187500.02, -187500.02, -187500.02, 0.00, 0.00, 0.00
251, -187500.02, -187500.02, 1206.41, -187500.02, -187500.02, -187500.02, -187500.02, -187500.02, 0.00, 0.00, 0.00
252, -187500.02, -187500.02, 1205.74, -187500.02, -187500.02, -187500.02, -187500.02, -187500.02, 0.00, 0.00, 0.00
253, -187500.02, -187500.02, 1200.04, -187500.02, -187500.02, -187500.02, -187500.02, -187500.02, 0.00, 0.00, 0.00
254, -187500.02, -187500.02, 1199.39, -187500.02, -187500.02, -187500.02, -187500.02, -187500.02, 0.00, 0.00, 0.00
255, -187500.02, -187500.02, 1220.25, -187500.02, -187500.02, -187500.02, -187500.02, -187500.02, -0.02, 0.00, 1.03
0, -187500.02, -187500.02, 1217.99, -187500.02, -187500.02, -187500.02, -187500.02, -187500.02, 0.00, 0.00, 0.00
1, -187500.02, -187500.02, 1204.22, -187500.02, -187500.02, -187500.02, -187500.02, -187500.02, 0.00, 0.00, 0.00
2, -187500.02, -187500.02, 1202.57, -187500.02, -187500.02, -187500.02, -187500.02, -187500.02, 0.00, 0.00, 0.00
3, -187500.02, -187500.02, 1213.92, -187500.02, -187500.02, -187500.02, -187500.02, -187500.02, 0.00, 0.00, 0.00
4, -187500.02, -187500.02, 1212.31, -187500.02, -187500.02, -187500.02, -187500.02, -187500.02, 0.00, 0.00, 0.00
5, -187500.02, -187500.02, 1207.31, -187500.02, -187500.02, -187500.02, -187500.02, -187500.02, 0.00, 0.00, 0.00
6, -187500.02, -187500.02, 1202.81, -187500.02, -187500.02, -187500.02, -187500.02, -187500.02, 0.00, 0.00, 0.00
7, -187500.02, -187500.02, 1217.32, -187500.02, -187500.02, -187500.02, -187500.02, -187500.02, 0.00, 0.00, 0.00
8, -187500.02, -187500.02, 1213.54, -187500.02, -187500.02, -187500.02, -187500.02, -187500.02, 0.00, 0.00, 0.00
9, -187500.02, -187500.02, 1208.13, -187500.02, -187500.02, -187500.02, -187500.02, -187500.02, -0.02, 0.01, 1.03
10, -187500.02, -187500.02, 1202.66, -187500.02, -187500.02, -187500.02, -187500.02, -187500.02, 0.00, 0.00, 0.00
11, -187500.02, -187500.02, 1218.80, -187500.02, -187500.02, -187500.02, -187500.02, -187500.02, 0.00, 0.00, 0.00
12, -187500.02, -187500.02, 1215.06, -187500.02, -187500.02, -187500.02, -187500.02, -187500.02, 0.00, 0.00, 0.00
13, -187500.02, -187500.02, 1205.56, -187500.02, -187500.02, -187500.02, -187500.02, -187500.02, 0.00, 0.00, 0.00
14, -187500.02, -187500.02, 1210.55, -187500.02, -187500.02, -187500.02, -187500.02, -187500.02, 0.00, 0.00, 0.00
15, -187500.02, -187500.02, 1218.46, -187500.02, -187500.02, -187500.02, -187500.02, -187500.02, 0.00, 0.00, 0.00
16, -187500.02, -187500.02, 1225.75, -187500.02, -187500.02, -187500.02, -187500.02, -187500.02, 0.00, 0.00, 0.00
17, -187500.02, -187500.02, 1216.56, -187500.02, -187500.02, -187500.02, -187500.02, -187500.02, 0.00, 0.00, 0.00
18, -187500.02, -187500.02, 1208.42, -187500.02, -187500.02, -187500.02, -187500.02, -187500.02, 0.00, 0.00, 0.00
19, -187500.02, -187500.02, 1215.02, -187500.02, -187500.02, -187500.02, -187500.02, -187500.02, -0.02, 0.01, 1.03
20, -187500.02, -187500.02, 1222.24, -187500.02, -187500.02, -187500.02, -187500.02, -187500.02, 0.00, 0.00, 0.00
21, -187500.02, -187500.02, 1211.62, -187500.02, -187500.02, -187500.02, -187500.02, -187500.02, 0.00, 0.00, 0.00
22, -187500.02, -187500.02, 1200.09, -187500.02, -187500.02, -187500.02, -187500.02, -187500.02, 0.00, 0.00, 0.00
23, -187500.02, -187500.02, 1209.23, -187500.02, -187500.02, -187500.02, -187500.02, -187500.02, 0.00, 0.00, 0.00
24, -187500.02, -187500.02, 1226.44, -187500.02, -187500.02, -187500.02, -187500.02, -187500.02, 0.00, 0.00, 0.00
25, -187500.02, -187500.02, 1210.03, -187500.02, -187500.02, -187500.02, -187500.02, -187500.02, 0.00, 0.00, 0.00
26, -187500.02, -187500.02, 1210.01, -187500.02, -187500.02, -187500.02, -187500.02, -187500.02, 0.00, 0.00, 0.00
