%OpenBCI Raw EEG Data
%
%Sample Rate = 250.0 Hz
%First Column = SampleIndex
%Other Columns = EEG data in microvolts followed by Accel Data (in G) interleaved with Aux Data
0, -187500.02, -187500.02, 5599.42, -187500.02, -187500.02, -187500.02, -187500.02, -187500.02, -0.01, -0.00, 1.03
1, -187500.02, -187500.02, 5583.02, -187500.02, -187500.02, -187500.02, -187500.02, -187500.02, 0.00, 0.00, 0.00
2, -187500.02, -187500.02, 5607.63, -187500.02, -187500.02, -187500.02, -187500.02, -187500.02, 0.00, 0.00, 0.00
3, -187500.02, -187500.02, 5626.20, -187500.02, -187500.02, -187500.02, -187500.02, -187500.02, 0.00, 0.00, 0.00
4, -187500.02, -187500.02, 5606.60, -187500.02, -187500.02, -187500.02, -187500.02, -187500.02, 0.00, 0.00, 0.00
5, -187500.02, -187500.02, 5589.41, -187500.02, -187500.02, -187500.02, -187500.02, -187500.02, 0.00, 0.00, 0.00
6, -187500.02, -187500.02, 5606.00, -187500.02, -187500.02, -187500.02, -187500.02, -187500.02, 0.00, 0.00, 0.00
7, -187500.02, -187500.02, 5627.86, -187500.02, -187500.02, -187500.02, -187500.02, -187500.02, -0.02, -0.00, 1.03
8, -187500.02, -187500.02, 5608.32, -187500.02, -187500.02, -187500.02, -187500.02, -187500.02, 0.00, 0.00, 0.00
9, -187500.02, -187500.02, 5592.81, -187500.02, -187500.02, -187500.02, -187500.02, -187500.02, 0.00, 0.00, 0.00
10, -187500.02, -187500.02, 5606.69, -187500.02, -187500.02, -187500.02, -187500.02, -187500.02, 0.00, 0.00, 0.00
11, -187500.02, -187500.02, 5624.46, -187500.02, -187500.02, -187500.02, -187500.02, -187500.02, 0.00, 0.00, 0.00
12, -187500.02, -187500.02, 5616.14, -187500.02, -187500.02, -187500.02, -187500.02, -187500.02, 0.00, 0.00, 0.00
13, -187500.02, -187500.02, 5598.64, -187500.02, -187500.02, -187500.02, -187500.02, -187500.02, 0.00, 0.00, 0.00
14, -187500.02, -187500.02, 5595.49, -187500.02, -187500.02, -187500.02, -187500.02, -187500.02, 0.00, 0.00, 0.00
15, -187500.02, -187500.02, 5621.73, -187500.02, -187500.02, -187500.02, -187500.02, -187500.02, 0.00, 0.00, 0.00
16, -187500.02, -187500.02, 5622.89, -187500.02, -187500.02, -187500.02, -187500.02, -187500.02, 0.00, 0.00, 0.00
17, -187500.02, -187500.02, 5604.21, -187500.02, -187500.02, -187500.02, -187500.02, -187500.02, -0.01, -0.01, 1.03
18, -187500.02, -187500.02, 5602.24, -187500.02, -187500.02, -187500.02, -187500.02, -187500.02, 0.00, 0.00, 0.00
19, -187500.02, -187500.02, 5622.11, -187500.02, -187500.02, -187500.02, -187500.02, -187500.02, 0.00, 0.00, 0.00
20, -187500.02, -187500.02, 5628.42, -187500.02, -187500.02, -187500.02, -187500.02, -187500.02, 0.00, 0.00, 0.00
21, -187500.02, -187500.02, 5606.02, -187500.02, -187500.02, -187500.02, -187500.02, -187500.02, 0.00, 0.00, 0.00
22, -187500.02, -187500.02, 5594.93, -187500.02, -187500.02, -187500.02, -187500.02, -187500.02, 0.00, 0.00, 0.00
23, -187500.02, -187500.02, 5616.03, -187500.02, -187500.02, -187500.02, -187500.02, -187500.02, 0.00, 0.00, 0.00
24, -187500.02, -187500.02, 5624.57, -187500.02, -187500.02, -187500.02, -187500.02, -187500.02, 0.00, 0.00, 0.00
25, -187500.02, -187500.02, 5610.80, -187500.02, -187500.02, -187500.02, -187500.02, -187500.02, 0.00, 0.00, 0.00
26, -187500.02, -187500.02, 5592.94, -187500.02, -187500.02, -187500.02, -187500.02, -187500.02, 0.00, 0.00, 0.00
27, -187500.02, -187500.02, 5609.28, -187500.02, -187500.02, -187500.02, -187500.02, -187500.02, -0.01, -0.00, 1.04
28, -187500.02, -187500.02, 5625.62, -187500.02, -187500.02, -187500.02, -187500.02, -187500.02, 0.00, 0.00, 0.00
29, -187500.02, -187500.02, 5609.10, -187500.02, -187500.02, -187500.02, -187500.02, -187500.02, 0.00, 0.00, 0.00
30, -187500.02, -187500.02, 5590.39, -187500.02, -187500.02, -187500.02, -187500.02, -187500.02, 0.00, 0.00, 0.00
31, -187500.02, -187500.02, 5601.26, -187500.02, -187500.02, -187500.02, -187500.02, -187500.02, 0.00, 0.00, 0.00
32, -187500.02, -187500.02, 5619.43, -187500.02, -187500.02, -187500.02, -187500.02, -187500.02, 0.00, 0.00, 0.00
33, -187500.02, -187500.02, 5618.07, -187500.02, -187500.02, -187500.02, -187500.02, -187500.02, 0.00, 0.00, 0.00
34, -187500.02, -187500.02, 5600.36, -187500.02, -187500.02, -187500.02, -187500.02, -187500.02, 0.00, 0.00, 0.00
35, -187500.02, -187500.02, 5599.18, -187500.02, -187500.02, -187500.02, -187500.02, -187500.02, 0.00, 0.00, 0.00
36, -187500.02, -187500.02, 5620.82, -187500.02, -187500.02, -187500.02, -187500.02, -187500.02, 0.00, 0.00, 0.00
37, -187500.02, -187500.02, 5618.31, -187500.02, -187500.02, -187500.02, -187500.02, -187500.02, -0.01, -0.01, 1.03
38, -187500.02, -187500.02, 5593.21, -187500.02, -187500.02, -187500.02, -187500.02, -187500.02, 0.00, 0.00, 0.00
39, -187500.02, -187500.02, 5595.71, -187500.02, -187500.02, -187500.02, -187500.02, -187500.02, 0.00, 0.00, 0.00
40, -187500.02, -187500.02, 5612.55, -187500.02, -187500.02, -187500.02, -187500.02, -187500.02, 0.00, 0.00, 0.00
41, -187500.02, -187500.02, 5615.94, -187500.02, -187500.02, -187500.02, -187500.02, -187500.02, 0.00, 0.00, 0.00
42, -187500.02, -187500.02, 5596.72, -187500.02, -187500.02, -187500.02, -187500.02, -187500.02, 0.00, 0.00, 0.00
43, -187500.02, -187500.02, 5590.01, -187500.02, -187500.02, -187500.02, -187500.02, -187500.02, 0.00, 0.00, 0.00
44, -187500.02, -187500.02, 5611.25, -187500.02, -187500.02, -187500.02, -187500.02, -187500.02, 0.00, 0.00, 0.00
45, -187500.02, -187500.02, 5615.79, -187500.02, -187500.02, -187500.02, -187500.02, -187500.02, 0.00, 0.00, 0.00
46, -187500.02, -187500.02, 5597.50, -187500.02, -187500.02, -187500.02, -187500.02, -187500.02, 0.00, 0.00, 0.00
47, -187500.02, -187500.02, 5576.38, -187500.02, -187500.02, -187500.02, -187500.02, -187500.02, -0.01, -0.01, 1.03
48, -187500.02, -187500.02, 5613.13, -187500.02, -187500.02, -187500.02, -187500.02, -187500.02, 0.00, 0.00, 0.00
49, -187500.02, -187500.02, 5622.92, -187500.02, -187500.02, -187500.02, -187500.02, -187500.02, 0.00, 0.00, 0.00
50, -187500.02, -187500.02, 5604.16, -187500.02, -187500.02, -187500.02, -187500.02, -187500.02, 0.00, 0.00, 0.00
51, -187500.02, -187500.02, 5591.24, -187500.02, -187500.02, -187500.02, -187500.02, -187500.02, 0.00, 0.00, 0.00
52, -187500.02, -187500.02, 5601.41, -187500.02, -187500.02, -187500.02, -187500.02, -187500.02, 0.00, 0.00, 0.00
53, -187500.02, -187500.02, 5620.44, -187500.02, -187500.02, -187500.02, -187500.02, -187500.02, 0.00, 0.00, 0.00
54, -187500.02, -187500.02, 5612.43, -187500.02, -187500.02, -187500.02, -187500.02, -187500.02, 0.00, 0.00, 0.00
55, -187500.02, -187500.02, 5587.73, -187500.02, -187500.02, -187500.02, -187500.02, -187500.02, 0.00, 0.00, 0.00
56, -187500.02, -187500.02, 5597.41, -187500.02, -187500.02, -187500.02, -187500.02, -187500.02, 0.00, 0.00, 0.00
57, -187500.02, -187500.02, 5621.71, -187500.02, -187500.02, -187500.02, -187500.02, -187500.02, 0.00, 0.00, 0.00
58, -187500.02, -187500.02, 5614.51, -187500.02, -187500.02, -187500.02, -187500.02, -187500.02, -0.01, 0.00, 1.03
59, -187500.02, -187500.02, 5596.83, -187500.02, -187500.02, -187500.02, -187500.02, -187500.02, 0.00, 0.00, 0.00
60, -187500.02, -187500.02, 5604.83, -187500.02, -187500.02, -187500.02, -187500.02, -187500.02, 0.00, 0.00, 0.00
61, -187500.02, -187500.02, 5621.71, -187500.02, -187500.02, -187500.02, -187500.02, -187500.02, 0.00, 0.00, 0.00
62, -187500.02, -187500.02, 5618.65, -187500.02, -187500.02, -187500.02, -187500.02, -187500.02, 0.00, 0.00, 0.00
63, -187500.02, -187500.02, 5603.54, -187500.02, -187500.02, -187500.02, -187500.02, -187500.02, 0.00, 0.00, 0.00
64, -187500.02, -187500.02, 5595.74, -187500.02, -187500.02, -187500.02, -187500.02, -187500.02, 0.00, 0.00, 0.00
65, -187500.02, -187500.02, 5619.63, -187500.02, -187500.02, -187500.02, -187500.02, -187500.02, 0.00, 0.00, 0.00
66, -187500.02, -187500.02, 5618.07, -187500.02, -187500.02, -187500.02, -187500.02, -187500.02, 0.00, 0.00, 0.00
67, -187500.02, -187500.02, 5600.97, -187500.02, -187500.02, -187500.02, -187500.02, -187500.02, 0.00, 0.00, 0.00
68, -187500.02, -187500.02, 5589.12, -187500.02, -187500.02, -187500.02, -187500.02, -187500.02, -0.01, -0.00, 1.03
69, -187500.02, -187500.02, 5615.88, -187500.02, -187500.02, -187500.02, -187500.02, -187500.02, 0.00, 0.00, 0.00
70, -187500.02, -187500.02, 5620.15, -187500.02, -187500.02, -187500.02, -187500.02, -187500.02, 0.00, 0.00, 0.00
71, -187500.02, -187500.02, 5598.73, -187500.02, -187500.02, -187500.02, -187500.02, -187500.02, 0.00, 0.00, 0.00
72, -187500.02, -187500.02, 5586.39, -187500.02, -187500.02, -187500.02, -187500.02, -187500.02, 0.00, 0.00, 0.00
73, -187500.02, -187500.02, 5612.23, -187500.02, -187500.02, -187500.02, -187500.02, -187500.02, 0.00, 0.00, 0.00
74, -187500.02, -187500.02, 5619.54, -187500.02, -187500.02, -187500.02, -187500.02, -187500.02, 0.00, 0.00, 0.00
75, -187500.02, -187500.02, 5598.84, -187500.02, -187500.02, -187500.02, -187500.02, -187500.02, 0.00, 0.00, 0.00
76, -187500.02, -187500.02, 5591.69, -187500.02, -187500.02, -187500.02, -187500.02, -187500.02, 0.00, 0.00, 0.00
77, -187500.02, -187500.02, 5610.35, -187500.02, -187500.02, -187500.02, -187500.02, -187500.02, 0.00, 0.00, 0.00
78, -187500.02, -187500.02, 5624.06, -187500.02, -187500.02, -187500.02, -187500.02, -187500.02, -0.01, -0.00, 1.03
79, -187500.02, -187500.02, 5615.43, -187500.02, -187500.02, -187500.02, -187500.02, -187500.02, 0.00, 0.00, 0.00
80, -187500.02, -187500.02, 5593.95, -187500.02, -187500.02, -187500.02, -187500.02, -187500.02, 0.00, 0.00, 0.00
81, -187500.02, -187500.02, 5601.17, -187500.02, -187500.02, -187500.02, -187500.02, -187500.02, 0.00, 0.00, 0.00
82, -187500.02, -187500.02, 5620.12, -187500.02, -187500.02, -187500.02, -187500.02, -187500.02, 0.00, 0.00, 0.00
83, -187500.02, -187500.02, 5608.90, -187500.02, -187500.02, -187500.02, -187500.02, -187500.02, 0.00, 0.00, 0.00
84, -187500.02, -187500.02, 5599.51, -187500.02, -187500.02, -187500.02, -187500.02, -187500.02, 0.00, 0.00, 0.00
85, -187500.02, -187500.02, 5595.40, -187500.02, -187500.02, -187500.02, -187500.02, -187500.02, 0.00, 0.00, 0.00
86, -187500.02, -187500.02, 5617.73, -187500.02, -187500.02, -187500.02, -187500.02, -187500.02, 0.00, 0.00, 0.00
87, -187500.02, -187500.02, 5616.75, -187500.02, -187500.02, -187500.02, -187500.02, -187500.02, 0.00, 0.00, 0.00
88, -187500.02, -187500.02, 5597.97, -187500.02, -187500.02, -187500.02, -187500.02, -187500.02, -0.01, 0.00, 1.03
89, -187500.02, -187500.02, 5593.55, -187500.02, -187500.02, -187500.02, -187500.02, -187500.02, 0.00, 0.00, 0.00
90, -187500.02, -187500.02, 5621.58, -187500.02, -187500.02, -187500.02, -187500.02, -187500.02, 0.00, 0.00, 0.00
91, -187500.02, -187500.02, 5619.36, -187500.02, -187500.02, -187500.02, -187500.02, -187500.02, 0.00, 0.00, 0.00
92, -187500.02, -187500.02, 5600.23, -187500.02, -187500.02, -187500.02, -187500.02, -187500.02, 0.00, 0.00, 0.00
93, -187500.02, -187500.02, 5584.31, -187500.02, -187500.02, -187500.02, -187500.02, -187500.02, 0.00, 0.00, 0.00
94, -187500.02, -187500.02, 5607.18, -187500.02, -187500.02, -187500.02, -187500.02, -187500.02, 0.00, 0.00, 0.00
95, -187500.02, -187500.02, 5616.19, -187500.02, -187500.02, -187500.02, -187500.02, -187500.02, 0.00, 0.00, 0.00
96, -187500.02, -187500.02, 5609.30, -187500.02, -187500.02, -187500.02, -187500.02, -187500.02, 0.00, 0.00, 0.00
97, -187500.02, -187500.02, 5591.33, -187500.02, -187500.02, -187500.02, -187500.02, -187500.02, 0.00, 0.00, 0.00
98, -187500.02, -187500.02, 5605.82, -187500.02, -187500.02, -187500.02, -187500.02, -187500.02, -0.00, 0.00, 1.03
99, -187500.02, -187500.02, 5619.21, -187500.02, -187500.02, -187500.02, -187500.02, -187500.02, 0.00, 0.00, 0.00
100, -187500.02, -187500.02, 5613.46, -187500.02, -187500.02, -187500.02, -187500.02, -187500.02, 0.00, 0.00, 0.00
101, -187500.02, -187500.02, 5592.43, -187500.02, -187500.02, -187500.02, -187500.02, -187500.02, 0.00, 0.00, 0.00
102, -187500.02, -187500.02, 5611.61, -187500.02, -187500.02, -187500.02, -187500.02, -187500.02, 0.00, 0.00, 0.00
103, -187500.02, -187500.02, 5628.33, -187500.02, -187500.02, -187500.02, -187500.02, -187500.02, 0.00, 0.00, 0.00
104, -187500.02, -187500.02, 5618.02, -187500.02, -187500.02, -187500.02, -187500.02, -187500.02, 0.00, 0.00, 0.00
105, -187500.02, -187500.02, 5594.62, -187500.02, -187500.02, -187500.02, -187500.02, -187500.02, 0.00, 0.00, 0.00
106, -187500.02, -187500.02, 5597.37, -187500.02, -187500.02, -187500.02, -187500.02, -187500.02, 0.00, 0.00, 0.00
107, -187500.02, -187500.02, 5618.83, -187500.02, -187500.02, -187500.02, -187500.02, -187500.02, 0.00, 0.00, 0.00
108, -187500.02, -187500.02, 5616.86, -187500.02, -187500.02, -187500.02, -187500.02, -187500.02, -0.00, -0.00, 1.03
109, -187500.02, -187500.02, 5598.87, -187500.02, -187500.02, -187500.02, -187500.02, -187500.02, 0.00, 0.00, 0.00
110, -187500.02, -187500.02, 5599.51, -187500.02, -187500.02, -187500.02, -187500.02, -187500.02, 0.00, 0.00, 0.00
111, -187500.02, -187500.02, 5619.97, -187500.02, -187500.02, -187500.02, -187500.02, -187500.02, 0.00, 0.00, 0.00
112, -187500.02, -187500.02, 5618.13, -187500.02, -187500.02, -187500.02, -187500.02, -187500.02, 0.00, 0.00, 0.00
113, -187500.02, -187500.02, 5593.28, -187500.02, -187500.02, -187500.02, -187500.02, -187500.02, 0.00, 0.00, 0.00
114, -187500.02, -187500.02, 5589.99, -187500.02, -187500.02, -187500.02, -187500.02, -187500.02, 0.00, 0.00, 0.00
115, -187500.02, -187500.02, 5618.31, -187500.02, -187500.02, -187500.02, -187500.02, -187500.02, 0.00, 0.00, 0.00
116, -187500.02, -187500.02, 5626.22, -187500.02, -187500.02, -187500.02, -187500.02, -187500.02, 0.00, 0.00, 0.00
117, -187500.02, -187500.02, 5602.15, -187500.02, -187500.02, -187500.02, -187500.02, -187500.02, 0.00, 0.00, 0.00
118, -187500.02, -187500.02, 5592.27, -187500.02, -187500.02, -187500.02, -187500.02, -187500.02, -0.01, -0.00, 1.04
119, -187500.02, -187500.02, 5622.25, -187500.02, -187500.02, -187500.02, -187500.02, -187500.02, 0.00, 0.00, 0.00
120, -187500.02, -187500.02, 5630.92, -187500.02, -187500.02, -187500.02, -187500.02, -187500.02, 0.00, 0.00, 0.00
121, -187500.02, -187500.02, 5603.98, -187500.02, -187500.02, -187500.02, -187500.02, -187500.02, 0.00, 0.00, 0.00
122, -187500.02, -187500.02, 5587.47, -187500.02, -187500.02, -187500.02, -187500.02, -187500.02, 0.00, 0.00, 0.00
123, -187500.02, -187500.02, 5605.10, -187500.02, -187500.02, -187500.02, -187500.02, -187500.02, 0.00, 0.00, 0.00
124, -187500.02, -187500.02, 5628.77, -187500.02, -187500.02, -187500.02, -187500.02, -187500.02, 0.00, 0.00, 0.00
125, -187500.02, -187500.02, 5616.50, -187500.02, -187500.02, -187500.02, -187500.02, -187500.02, 0.00, 0.00, 0.00
126, -187500.02, -187500.02, 5592.94, -187500.02, -187500.02, -187500.02, -187500.02, -187500.02, 0.00, 0.00, 0.00
127, -187500.02, -187500.02, 5603.22, -187500.02, -187500.02, -187500.02, -187500.02, -187500.02, 0.00, 0.00, 0.00
128, -187500.02, -187500.02, 5626.83, -187500.02, -187500.02, -187500.02, -187500.02, -187500.02, 0.00, 0.00, 0.00
129, -187500.02, -187500.02, 5619.54, -187500.02, -187500.02, -187500.02, -187500.02, -187500.02, -0.01, -0.00, 1.04
130, -187500.02, -187500.02, 5596.85, -187500.02, -187500.02, -187500.02, -187500.02, -187500.02, 0.00, 0.00, 0.00
131, -187500.02, -187500.02, 5598.78, -187500.02, -187500.02, -187500.02, -187500.02, -187500.02, 0.00, 0.00, 0.00
132, -187500.02, -187500.02, 5620.70, -187500.02, -187500.02, -187500.02, -187500.02, -187500.02, 0.00, 0.00, 0.00
133, -187500.02, -187500.02, 5623.99, -187500.02, -187500.02, -187500.02, -187500.02, -187500.02, 0.00, 0.00, 0.00
134, -187500.02, -187500.02, 5604.01, -187500.02, -187500.02, -187500.02, -187500.02, -187500.02, 0.00, 0.00, 0.00
135, -187500.02, -187500.02, 5599.18, -187500.02, -187500.02, -187500.02, -187500.02, -187500.02, 0.00, 0.00, 0.00
136, -187500.02, -187500.02, 5627.41, -187500.02, -187500.02, -187500.02, -187500.02, -187500.02, 0.00, 0.00, 0.00
137, -187500.02, -187500.02, 5624.01, -187500.02, -187500.02, -187500.02, -187500.02, -187500.02, 0.00, 0.00, 0.00
138, -187500.02, -187500.02, 5604.32, -187500.02, -187500.02, -187500.02, -187500.02, -187500.02, 0.00, 0.00, 0.00
139, -187500.02, -187500.02, 5588.03, -187500.02, -187500.02, -187500.02, -187500.02, -187500.02, -0.01, 0.00, 1.03
140, -187500.02, -187500.02, 5620.03, -187500.02, -187500.02, -187500.02, -187500.02, -187500.02, 0.00, 0.00, 0.00
141, -187500.02, -187500.02, 5624.59, -187500.02, -187500.02, -187500.02, -187500.02, -187500.02, 0.00, 0.00, 0.00
142, -187500.02, -187500.02, 5604.88, -187500.02, -187500.02, -187500.02, -187500.02, -187500.02, 0.00, 0.00, 0.00
143, -187500.02, -187500.02, 5588.79, -187500.02, -187500.02, -187500.02, -187500.02, -187500.02, 0.00, 0.00, 0.00
144, -187500.02, -187500.02, 5611.90, -187500.02, -187500.02, -187500.02, -187500.02, -187500.02, 0.00, 0.00, 0.00
145, -187500.02, -187500.02, 5625.08, -187500.02, -187500.02, -187500.02, -187500.02, -187500.02, 0.00, 0.00, 0.00
146, -187500.02, -187500.02, 5616.14, -187500.02, -187500.02, -187500.02, -187500.02, -187500.02, 0.00, 0.00, 0.00
147, -187500.02, -187500.02, 5590.19, -187500.02, -187500.02, -187500.02, -187500.02, -187500.02, 0.00, 0.00, 0.00
148, -187500.02, -187500.02, 5610.31, -187500.02, -187500.02, -187500.02, -187500.02, -187500.02, 0.00, 0.00, 0.00
149, -187500.02, -187500.02, 5629.53, -187500.02, -187500.02, -187500.02, -187500.02, -187500.02, -0.01, 0.00, 1.03
150, -187500.02, -187500.02, 5615.74, -187500.02, -187500.02, -187500.02, -187500.02, -187500.02, 0.00, 0.00, 0.00
151, -187500.02, -187500.02, 5593.57, -187500.02, -187500.02, -187500.02, -187500.02, -187500.02, 0.00, 0.00, 0.00
152, -187500.02, -187500.02, 5601.08, -187500.02, -187500.02, -187500.02, -187500.02, -187500.02, 0.00, 0.00, 0.00
153, -187500.02, -187500.02, 5623.61, -187500.02, -187500.02, -187500.02, -187500.02, -187500.02, 0.00, 0.00, 0.00
154, -187500.02, -187500.02, 5621.06, -187500.02, -187500.02, -187500.02, -187500.02, -187500.02, 0.00, 0.00, 0.00
155, -187500.02, -187500.02, 5594.04, -187500.02, -187500.02, -187500.02, -187500.02, -187500.02, 0.00, 0.00, 0.00
156, -187500.02, -187500.02, 5590.71, -187500.02, -187500.02, -187500.02, -187500.02, -187500.02, 0.00, 0.00, 0.00
157, -187500.02, -187500.02, 5620.15, -187500.02, -187500.02, -187500.02, -187500.02, -187500.02, 0.00, 0.00, 0.00
158, -187500.02, -187500.02, 5621.96, -187500.02, -187500.02, -187500.02, -187500.02, -187500.02, 0.00, 0.00, 0.00
159, -187500.02, -187500.02, 5596.94, -187500.02, -187500.02, -187500.02, -187500.02, -187500.02, -0.01, 0.00, 1.03
160, -187500.02, -187500.02, 5590.82, -187500.02, -187500.02, -187500.02, -187500.02, -187500.02, 0.00, 0.00, 0.00
161, -187500.02, -187500.02, 5617.84, -187500.02, -187500.02, -187500.02, -187500.02, -187500.02, 0.00, 0.00, 0.00
162, -187500.02, -187500.02, 5618.20, -187500.02, -187500.02, -187500.02, -187500.02, -187500.02, 0.00, 0.00, 0.00
163, -187500.02, -187500.02, 5599.25, -187500.02, -187500.02, -187500.02, -187500.02, -187500.02, 0.00, 0.00, 0.00
164, -187500.02, -187500.02, 5589.52, -187500.02, -187500.02, -187500.02, -187500.02, -187500.02, 0.00, 0.00, 0.00
165, -187500.02, -187500.02, 5615.50, -187500.02, -187500.02, -187500.02, -187500.02, -187500.02, 0.00, 0.00, 0.00
166, -187500.02, -187500.02, 5619.50, -187500.02, -187500.02, -187500.02, -187500.02, -187500.02, 0.00, 0.00, 0.00
167, -187500.02, -187500.02, 5603.20, -187500.02, -187500.02, -187500.02, -187500.02, -187500.02, 0.00, 0.00, 0.00
168, -187500.02, -187500.02, 5589.63, -187500.02, -187500.02, -187500.02, -187500.02, -187500.02, 0.00, 0.00, 0.00
169, -187500.02, -187500.02, 5605.97, -187500.02, -187500.02, -187500.02, -187500.02, -187500.02, -0.01, 0.00, 1.04
170, -187500.02, -187500.02, 5621.84, -187500.02, -187500.02, -187500.02, -187500.02, -187500.02, 0.00, 0.00, 0.00
171, -187500.02, -187500.02, 5607.36, -187500.02, -187500.02, -187500.02, -187500.02, -187500.02, 0.00, 0.00, 0.00
172, -187500.02, -187500.02, 5578.59, -187500.02, -187500.02, -187500.02, -187500.02, -187500.02, 0.00, 0.00, 0.00
173, -187500.02, -187500.02, 5597.30, -187500.02, -187500.02, -187500.02, -187500.02, -187500.02, 0.00, 0.00, 0.00
174, -187500.02, -187500.02, 5623.10, -187500.02, -187500.02, -187500.02, -187500.02, -187500.02, 0.00, 0.00, 0.00
175, -187500.02, -187500.02, 5608.07, -187500.02, -187500.02, -187500.02, -187500.02, -187500.02, 0.00, 0.00, 0.00
176, -187500.02, -187500.02, 5590.33, -187500.02, -187500.02, -187500.02, -187500.02, -187500.02, 0.00, 0.00, 0.00
177, -187500.02, -187500.02, 5599.31, -187500.02, -187500.02, -187500.02, -187500.02, -187500.02, 0.00, 0.00, 0.00
178, -187500.02, -187500.02, 5622.74, -187500.02, -187500.02, -187500.02, -187500.02, -187500.02, 0.00, 0.00, 0.00
179, -187500.02, -187500.02, 5607.90, -187500.02, -187500.02, -187500.02, -187500.02, -187500.02, -0.01, -0.00, 1.04
180, -187500.02, -187500.02, 5588.47, -187500.02, -187500.02, -187500.02, -187500.02, -187500.02, 0.00, 0.00, 0.00
181, -187500.02, -187500.02, 5589.81, -187500.02, -187500.02, -187500.02, -187500.02, -187500.02, 0.00, 0.00, 0.00
182, -187500.02, -187500.02, 5617.46, -187500.02, -187500.02, -187500.02, -187500.02, -187500.02, 0.00, 0.00, 0.00
183, -187500.02, -187500.02, 5614.20, -187500.02, -187500.02, -187500.02, -187500.02, -187500.02, 0.00, 0.00, 0.00
184, -187500.02, -187500.02, 5596.63, -187500.02, -187500.02, -187500.02, -187500.02, -187500.02, 0.00, 0.00, 0.00
185, -187500.02, -187500.02, 5585.46, -187500.02, -187500.02, -187500.02, -187500.02, -187500.02, 0.00, 0.00, 0.00
186, -187500.02, -187500.02, 5610.65, -187500.02, -187500.02, -187500.02, -187500.02, -187500.02, 0.00, 0.00, 0.00
187, -187500.02, -187500.02, 5619.30, -187500.02, -187500.02, -187500.02, -187500.02, -187500.02, 0.00, 0.00, 0.00
188, -187500.02, -187500.02, 5597.39, -187500.02, -187500.02, -187500.02, -187500.02, -187500.02, 0.00, 0.00, 0.00
189, -187500.02, -187500.02, 5583.26, -187500.02, -187500.02, -187500.02, -187500.02, -187500.02, 0.00, 0.00, 0.00
190, -187500.02, -187500.02, 5614.06, -187500.02, -187500.02, -187500.02, -187500.02, -187500.02, -0.01, -0.00, 1.04
191, -187500.02, -187500.02, 5623.45, -187500.02, -187500.02, -187500.02, -187500.02, -187500.02, 0.00, 0.00, 0.00
192, -187500.02, -187500.02, 5610.04, -187500.02, -187500.02, -187500.02, -187500.02, -187500.02, 0.00, 0.00, 0.00
193, -187500.02, -187500.02, 5587.51, -187500.02, -187500.02, -187500.02, -187500.02, -187500.02, 0.00, 0.00, 0.00
194, -187500.02, -187500.02, 5603.98, -187500.02, -187500.02, -187500.02, -187500.02, -187500.02, 0.00, 0.00, 0.00
195, -187500.02, -187500.02, 5616.19, -187500.02, -187500.02, -187500.02, -187500.02, -187500.02, 0.00, 0.00, 0.00
196, -187500.02, -187500.02, 5606.69, -187500.02, -187500.02, -187500.02, -187500.02, -187500.02, 0.00, 0.00, 0.00
197, -187500.02, -187500.02, 5589.50, -187500.02, -187500.02, -187500.02, -187500.02, -187500.02, 0.00, 0.00, 0.00
198, -187500.02, -187500.02, 5598.22, -187500.02, -187500.02, -187500.02, -187500.02, -187500.02, 0.00, 0.00, 0.00
199, -187500.02, -187500.02, 5620.52, -187500.02, -187500.02, -187500.02, -187500.02, -187500.02, 0.00, 0.00, 0.00
200, -187500.02, -187500.02, 5614.71, -187500.02, -187500.02, -187500.02, -187500.02, -187500.02, -0.01, -0.01, 1.03
201, -187500.02, -187500.02, 5593.55, -187500.02, -187500.02, -187500.02, -187500.02, -187500.02, 0.00, 0.00, 0.00
202, -187500.02, -187500.02, 5596.94, -187500.02, -187500.02, -187500.02, -187500.02, -187500.02, 0.00, 0.00, 0.00
203, -187500.02, -187500.02, 5617.46, -187500.02, -187500.02, -187500.02, -187500.02, -187500.02, 0.00, 0.00, 0.00
204, -187500.02, -187500.02, 5616.75, -187500.02, -187500.02, -187500.02, -187500.02, -187500.02, 0.00, 0.00, 0.00
205, -187500.02, -187500.02, 5595.27, -187500.02, -187500.02, -187500.02, -187500.02, -187500.02, 0.00, 0.00, 0.00
206, -187500.02, -187500.02, 5590.82, -187500.02, -187500.02, -187500.02, -187500.02, -187500.02, 0.00, 0.00, 0.00
207, -187500.02, -187500.02, 5617.98, -187500.02, -187500.02, -187500.02, -187500.02, -187500.02, 0.00, 0.00, 0.00
208, -187500.02, -187500.02, 5618.13, -187500.02, -187500.02, -187500.02, -187500.02, -187500.02, 0.00, 0.00, 0.00
209, -187500.02, -187500.02, 5603.63, -187500.02, -187500.02, -187500.02, -187500.02, -187500.02, 0.00, 0.00, 0.00
210, -187500.02, -187500.02, 5598.71, -187500.02, -187500.02, -187500.02, -187500.02, -187500.02, -0.01, -0.01, 1.03
211, -187500.02, -187500.02, 5621.46, -187500.02, -187500.02, -187500.02, -187500.02, -187500.02, 0.00, 0.00, 0.00
212, -187500.02, -187500.02, 5629.04, -187500.02, -187500.02, -187500.02, -187500.02, -187500.02, 0.00, 0.00, 0.00
213, -187500.02, -187500.02, 5606.91, -187500.02, -187500.02, -187500.02, -187500.02, -187500.02, 0.00, 0.00, 0.00
214, -187500.02, -187500.02, 5595.04, -187500.02, -187500.02, -187500.02, -187500.02, -187500.02, 0.00, 0.00, 0.00
215, -187500.02, -187500.02, 5613.62, -187500.02, -187500.02, -187500.02, -187500.02, -187500.02, 0.00, 0.00, 0.00
216, -187500.02, -187500.02, 5624.35, -187500.02, -187500.02, -187500.02, -187500.02, -187500.02, 0.00, 0.00, 0.00
217, -187500.02, -187500.02, 5613.60, -187500.02, -187500.02, -187500.02, -187500.02, -187500.02, 0.00, 0.00, 0.00
218, -187500.02, -187500.02, 5589.66, -187500.02, -187500.02, -187500.02, -187500.02, -187500.02, 0.00, 0.00, 0.00
219, -187500.02, -187500.02, 5607.61, -187500.02, -187500.02, -187500.02, -187500.02, -187500.02, 0.00, 0.00, 0.00
220, -187500.02, -187500.02, 5623.50, -187500.02, -187500.02, -187500.02, -187500.02, -187500.02, -0.01, -0.00, 1.03
221, -187500.02, -187500.02, 5616.41, -187500.02, -187500.02, -187500.02, -187500.02, -187500.02, 0.00, 0.00, 0.00
222, -187500.02, -187500.02, 5590.31, -187500.02, -187500.02, -187500.02, -187500.02, -187500.02, 0.00, 0.00, 0.00
223, -187500.02, -187500.02, 5604.12, -187500.02, -187500.02, -187500.02, -187500.02, -187500.02, 0.00, 0.00, 0.00
224, -187500.02, -187500.02, 5625.84, -187500.02, -187500.02, -187500.02, -187500.02, -187500.02, 0.00, 0.00, 0.00
225, -187500.02, -187500.02, 5619.12, -187500.02, -187500.02, -187500.02, -187500.02, -187500.02, 0.00, 0.00, 0.00
226, -187500.02, -187500.02, 5595.80, -187500.02, -187500.02, -187500.02, -187500.02, -187500.02, 0.00, 0.00, 0.00
227, -187500.02, -187500.02, 5597.39, -187500.02, -187500.02, -187500.02, -187500.02, -187500.02, 0.00, 0.00, 0.00
228, -187500.02, -187500.02, 5625.91, -187500.02, -187500.02, -187500.02, -187500.02, -187500.02, 0.00, 0.00, 0.00
229, -187500.02, -187500.02, 5617.60, -187500.02, -187500.02, -187500.02, -187500.02, -187500.02, 0.00, 0.00, 0.00
230, -187500.02, -187500.02, 5597.88, -187500.02, -187500.02, -187500.02, -187500.02, -187500.02, -0.01, -0.00, 1.03
231, -187500.02, -187500.02, 5590.08, -187500.02, -187500.02, -187500.02, -187500.02, -187500.02, 0.00, 0.00, 0.00
232, -187500.02, -187500.02, 5612.39, -187500.02, -187500.02, -187500.02, -187500.02, -187500.02, 0.00, 0.00, 0.00
233, -187500.02, -187500.02, 5617.98, -187500.02, -187500.02, -187500.02, -187500.02, -187500.02, 0.00, 0.00, 0.00
234, -187500.02, -187500.02, 5598.02, -187500.02, -187500.02, -187500.02, -187500.02, -187500.02, 0.00, 0.00, 0.00
235, -187500.02, -187500.02, 5581.41, -187500.02, -187500.02, -187500.02, -187500.02, -187500.02, 0.00, 0.00, 0.00
236, -187500.02, -187500.02, 5608.30, -187500.02, -187500.02, -187500.02, -187500.02, -187500.02, 0.00, 0.00, 0.00
237, -187500.02, -187500.02, 5618.69, -187500.02, -187500.02, -187500.02, -187500.02, -187500.02, 0.00, 0.00, 0.00
238, -187500.02, -187500.02, 5600.16, -187500.02, -187500.02, -187500.02, -187500.02, -187500.02, 0.00, 0.00, 0.00
239, -187500.02, -187500.02, 5577.18, -187500.02, -187500.02, -187500.02, -187500.02, -187500.02, 0.00, 0.00, 0.00
240, -187500.02, -187500.02, 5598.46, -187500.02, -187500.02, -187500.02, -187500.02, -187500.02, -0.01, -0.00, 1.04
241, -187500.02, -187500.02, 5614.49, -187500.02, -187500.02, -187500.02, -187500.02, -187500.02, 0.00, 0.00, 0.00
242, -187500.02, -187500.02, 5594.10, -187500.02, -187500.02, -187500.02, -187500.02, -187500.02, 0.00, 0.00, 0.00
243, -187500.02, -187500.02, 5582.68, -187500.02, -187500.02, -187500.02, -187500.02, -187500.02, 0.00, 0.00, 0.00
244, -187500.02, -187500.02, 5598.71, -187500.02, -187500.02, -187500.02, -187500.02, -187500.02, 0.00, 0.00, 0.00
245, -187500.02, -187500.02, 5613.26, -187500.02, -187500.02, -187500.02, -187500.02, -187500.02, 0.00, 0.00, 0.00
246, -187500.02, -187500.02, 5601.66, -187500.02, -187500.02, -187500.02, -187500.02, -187500.02, 0.00, 0.00, 0.00
247, -187500.02, -187500.02, 5583.98, -187500.02, -187500.02, -187500.02, -187500.02, -187500.02, 0.00, 0.00, 0.00
248, -187500.02, -187500.02, 5590.89, -187500.02, -187500.02, -187500.02, -187500.02, -187500.02, 0.00, 0.00, 0.00
249, -187500.02, -187500.02, 5618.40, -187500.02, -187500.02, -187500.02, -187500.02, -187500.02, 0.00, 0.00, 0.00
250, -187500.02, -187500.02, 5605.79, -187500.02, -187500.02, -187500.02, -187500.02, -187500.02, 0.00, 0.00, 0.00
251, -187500.02, -187500.02, 5582.50, -187500.02, -187500.02, -187500.02, -187500.02, -187500.02, -0.01, -0.00, 1.04
252, -187500.02, -187500.02, 5578.91, -187500.02, -187500.02, -187500.02, -187500.02, -187500.02, 0.00, 0.00, 0.00
253, -187500.02, -187500.02, 5607.52, -187500.02, -187500.02, -187500.02, -187500.02, -187500.02, 0.00, 0.00, 0.00
254, -187500.02, -187500.02, 5611.76, -187500.02, -187500.02, -187500.02, -187500.02, -187500.02, 0.00, 0.00, 0.00
255, -187500.02, -187500.02, 5588.70, -187500.02, -187500.02, -187500.02, -187500.02, -187500.02, 0.00, 0.00, 0.00
0, -187500.02, -187500.02, 5584.09, -187500.02, -187500.02, -187500.02, -187500.02, -187500.02, 0.00, 0.00, 0.00
1, -187500.02, -187500.02, 5608.97, -187500.02, -187500.02, -187500.02, -187500.02, -187500.02, 0.00, 0.00, 0.00
2, -187500.02, -187500.02, 5612.66, -187500.02, -187500.02, -187500.02, -187500.02, -187500.02, 0.00, 0.00, 0.00
3, -187500.02, -187500.02, 5595.45, -187500.02, -187500.02, -187500.02, -187500.02, -187500.02, 0.00, 0.00, 0.00
4, -187500.02, -187500.02, 5583.35, -187500.02, -187500.02, -187500.02, -187500.02, -187500.02, 0.00, 0.00, 0.00
5, -187500.02, -187500.02, 5607.47, -187500.02, -187500.02, -187500.02, -187500.02, -187500.02, -0.01, -0.00, 1.03
6, -187500.02, -187500.02, 5610.91, -187500.02, -187500.02, -187500.02, -187500.02, -187500.02, 0.00, 0.00, 0.00
7, -187500.02, -187500.02, 5601.82, -187500.02, -187500.02, -187500.02, -187500.02, -187500.02, 0.00, 0.00, 0.00
8, -187500.02, -187500.02, 5588.52, -187500.02, -187500.02, -187500.02, -187500.02, -187500.02, 0.00, 0.00, 0.00
9, -187500.02, -187500.02, 5596.34, -187500.02, -187500.02, -187500.02, -187500.02, -187500.02, 0.00, 0.00, 0.00
10, -187500.02, -187500.02, 5609.64, -187500.02, -187500.02, -187500.02, -187500.02, -187500.02, 0.00, 0.00, 0.00
11, -187500.02, -187500.02, 5597.82, -187500.02, -187500.02, -187500.02, -187500.02, -187500.02, 0.00, 0.00, 0.00
12, -187500.02, -187500.02, 5584.16, -187500.02, -187500.02, -187500.02, -187500.02, -187500.02, 0.00, 0.00, 0.00
13, -187500.02, -187500.02, 5596.85, -187500.02, -187500.02, -187500.02, -187500.02, -187500.02, 0.00, 0.00, 0.00
14, -187500.02, -187500.02, 5613.42, -187500.02, -187500.02, -187500.02, -187500.02, -187500.02, 0.00, 0.00, 0.00
15, -187500.02, -187500.02, 5606.55, -187500.02, -187500.02, -187500.02, -187500.02, -187500.02, -0.01, 0.00, 1.03
16, -187500.02, -187500.02, 5584.23, -187500.02, -187500.02, -187500.02, -187500.02, -187500.02, 0.00, 0.00, 0.00
17, -187500.02, -187500.02, 5585.43, -187500.02, -187500.02, -187500.02, -187500.02, -187500.02, 0.00, 0.00, 0.00
18, -187500.02, -187500.02, 5610.49, -187500.02, -187500.02, -187500.02, -187500.02, -187500.02, 0.00, 0.00, 0.00
19, -187500.02, -187500.02, 5610.58, -187500.02, -187500.02, -187500.02, -187500.02, -187500.02, 0.00, 0.00, 0.00
20, -187500.02, -187500.02, 5585.10, -187500.02, -187500.02, -187500.02, -187500.02, -187500.02, 0.00, 0.00, 0.00
21, -187500.02, -187500.02, 5592.50, -187500.02, -187500.02, -187500.02, -187500.02, -187500.02, 0.00, 0.00, 0.00
22, -187500.02, -187500.02, 5616.28, -187500.02, -187500.02, -187500.02, -187500.02, -187500.02, 0.00, 0.00, 0.00
23, -187500.02, -187500.02, 5614.60, -187500.02, -187500.02, -187500.02, -187500.02, -187500.02, 0.00, 0.00, 0.00
24, -187500.02, -187500.02, 5602.93, -187500.02, -187500.02, -187500.02, -187500.02, -187500.02, 0.00, 0.00, 0.00
25, -187500.02, -187500.02, 5595.69, -187500.02, -187500.02, -187500.02, -187500.02, -187500.02, -0.01, -0.00, 1.03
26, -187500.02, -187500.02, 5610.20, -187500.02, -187500.02, -187500.02, -187500.02, -187500.02, 0.00, 0.00, 0.00
27, -187500.02, -187500.02, 5617.33, -187500.02, -187500.02, -187500.02, -187500.02, -187500.02, 0.00, 0.00, 0.00
28, -187500.02, -187500.02, 5600.01, -187500.02, -187500.02, -187500.02, -187500.02, -187500.02, 0.00, 0.00, 0.00
29, -187500.02, -187500.02, 5583.80, -187500.02, -187500.02, -187500.02, -187500.02, -187500.02, 0.00, 0.00, 0.00
30, -187500.02, -187500.02, 5603.65, -187500.02, -187500.02, -187500.02, -187500.02, -187500.02, 0.00, 0.00, 0.00
31, -187500.02, -187500.02, 5615.34, -187500.02, -187500.02, -187500.02, -187500.02, -187500.02, 0.00, 0.00, 0.00
32, -187500.02, -187500.02, 5606.85, -187500.02, -187500.02, -187500.02, -187500.02, -187500.02, 0.00, 0.00, 0.00
33, -187500.02, -187500.02, 5591.60, -187500.02, -187500.02, -187500.02, -187500.02, -187500.02, 0.00, 0.00, 0.00
34, -187500.02, -187500.02, 5603.38, -187500.02, -187500.02, -187500.02, -187500.02, -187500.02, 0.00, 0.00, 0.00
35, -187500.02, -187500.02, 5621.46, -187500.02, -187500.02, -187500.02, -187500.02, -187500.02, -0.01, -0.00, 1.03
36, -187500.02, -187500.02, 5615.99, -187500.02, -187500.02, -187500.02, -187500.02, -187500.02, 0.00, 0.00, 0.00
37, -187500.02, -187500.02, 5595.60, -187500.02, -187500.02, -187500.02, -187500.02, -187500.02, 0.00, 0.00, 0.00
38, -187500.02, -187500.02, 5599.07, -187500.02, -187500.02, -187500.02, -187500.02, -187500.02, 0.00, 0.00, 0.00
39, -187500.02, -187500.02, 5623.05, -187500.02, -187500.02, -187500.02, -187500.02, -187500.02, 0.00, 0.00, 0.00
40, -187500.02, -187500.02, 5615.94, -187500.02, -187500.02, -187500.02, -187500.02, -187500.02, 0.00, 0.00, 0.00
41, -187500.02, -187500.02, 5592.34, -187500.02, -187500.02, -187500.02, -187500.02, -187500.02, 0.00, 0.00, 0.00
42, -187500.02, -187500.02, 5595.87, -187500.02, -187500.02, -187500.02, -187500.02, -187500.02, 0.00, 0.00, 0.00
43, -187500.02, -187500.02, 5618.27, -187500.02, -187500.02, -187500.02, -187500.02, -187500.02, 0.00, 0.00, 0.00
44, -187500.02, -187500.02, 5618.38, -187500.02, -187500.02, -187500.02, -187500.02, -187500.02, 0.00, 0.00, 0.00
45, -187500.02, -187500.02, 5592.32, -187500.02, -187500.02, -187500.02, -187500.02, -187500.02, -0.01, 0.00, 1.02
46, -187500.02, -187500.02, 5596.16, -187500.02, -187500.02, -187500.02, -187500.02, -187500.02, 0.00, 0.00, 0.00
47, -187500.02, -187500.02, 5622.65, -187500.02, -187500.02, -187500.02, -187500.02, -187500.02, 0.00, 0.00, 0.00
48, -187500.02, -187500.02, 5624.91, -187500.02, -187500.02, -187500.02, -187500.02, -187500.02, 0.00, 0.00, 0.00
49, -187500.02, -187500.02, 5604.45, -187500.02, -187500.02, -187500.02, -187500.02, -187500.02, 0.00, 0.00, 0.00
50, -187500.02, -187500.02, 5592.21, -187500.02, -187500.02, -187500.02, -187500.02, -187500.02, 0.00, 0.00, 0.00
51, -187500.02, -187500.02, 5621.35, -187500.02, -187500.02, -187500.02, -187500.02, -187500.02, 0.00, 0.00, 0.00
52, -187500.02, -187500.02, 5628.79, -187500.02, -187500.02, -187500.02, -187500.02, -187500.02, 0.00, 0.00, 0.00
53, -187500.02, -187500.02, 5617.17, -187500.02, -187500.02, -187500.02, -187500.02, -187500.02, 0.00, 0.00, 0.00
54, -187500.02, -187500.02, 5598.93, -187500.02, -187500.02, -187500.02, -187500.02, -187500.02, 0.00, 0.00, 0.00
55, -187500.02, -187500.02, 5613.46, -187500.02, -187500.02, -187500.02, -187500.02, -187500.02, -0.02, 0.00, 1.03
56, -187500.02, -187500.02, 5623.52, -187500.02, -187500.02, -187500.02, -187500.02, -187500.02, 0.00, 0.00, 0.00
57, -187500.02, -187500.02, 5612.61, -187500.02, -187500.02, -187500.02, -187500.02, -187500.02, 0.00, 0.00, 0.00
58, -187500.02, -187500.02, 5596.47, -187500.02, -187500.02, -187500.02, -187500.02, -187500.02, 0.00, 0.00, 0.00
59, -187500.02, -187500.02, 5609.97, -187500.02, -187500.02, -187500.02, -187500.02, -187500.02, 0.00, 0.00, 0.00
60, -187500.02, -187500.02, 5627.43, -187500.02, -187500.02, -187500.02, -187500.02, -187500.02, 0.00, 0.00, 0.00
61, -187500.02, -187500.02, 5611.72, -187500.02, -187500.02, -187500.02, -187500.02, -187500.02, 0.00, 0.00, 0.00
62, -187500.02, -187500.02, 5594.10, -187500.02, -187500.02, -187500.02, -187500.02, -187500.02, 0.00, 0.00, 0.00
63, -187500.02, -187500.02, 5599.83, -187500.02, -187500.02, -187500.02, -187500.02, -187500.02, 0.00, 0.00, 0.00
64, -187500.02, -187500.02, 5624.84, -187500.02, -187500.02, -187500.02, -187500.02, -187500.02, 0.00, 0.00, 0.00
65, -187500.02, -187500.02, 5625.17, -187500.02, -187500.02, -187500.02, -187500.02, -187500.02, 0.00, 0.00, 0.00
66, -187500.02, -187500.02, 5600.32, -187500.02, -187500.02, -187500.02, -187500.02, -187500.02, -0.02, 0.00, 1.03
67, -187500.02, -187500.02, 5598.24, -187500.02, -187500.02, -187500.02, -187500.02, -187500.02, 0.00, 0.00, 0.00
68, -187500.02, -187500.02, 5622.67, -187500.02, -187500.02, -187500.02, -187500.02, -187500.02, 0.00, 0.00, 0.00
69, -187500.02, -187500.02, 5623.05, -187500.02, -187500.02, -187500.02, -187500.02, -187500.02, 0.00, 0.00, 0.00
70, -187500.02, -187500.02, 5600.77, -187500.02, -187500.02, -187500.02, -187500.02, -187500.02, 0.00, 0.00, 0.00
71, -187500.02, -187500.02, 5593.30, -187500.02, -187500.02, -187500.02, -187500.02, -187500.02, 0.00, 0.00, 0.00
72, -187500.02, -187500.02, 5623.18, -187500.02, -187500.02, -187500.02, -187500.02, -187500.02, 0.00, 0.00, 0.00
73, -187500.02, -187500.02, 5619.92, -187500.02, -187500.02, -187500.02, -187500.02, -187500.02, 0.00, 0.00, 0.00
74, -187500.02, -187500.02, 5600.34, -187500.02, -187500.02, -187500.02, -187500.02, -187500.02, 0.00, 0.00, 0.00
75, -187500.02, -187500.02, 5587.60, -187500.02, -187500.02, -187500.02, -187500.02, -187500.02, 0.00, 0.00, 0.00
76, -187500.02, -187500.02, 5605.35, -187500.02, -187500.02, -187500.02, -187500.02, -187500.02, -0.02, -0.01, 1.03
77, -187500.02, -187500.02, 5619.54, -187500.02, -187500.02, -187500.02, -187500.02, -187500.02, 0.00, 0.00, 0.00
78, -187500.02, -187500.02, 5604.52, -187500.02, -187500.02, -187500.02, -187500.02, -187500.02, 0.00, 0.00, 0.00
79, -187500.02, -187500.02, 5589.21, -187500.02, -187500.02, -187500.02, -187500.02, -187500.02, 0.00, 0.00, 0.00
80, -187500.02, -187500.02, 5603.83, -187500.02, -187500.02, -187500.02, -187500.02, -187500.02, 0.00, 0.00, 0.00
81, -187500.02, -187500.02, 5621.69, -187500.02, -187500.02, -187500.02, -187500.02, -187500.02, 0.00, 0.00, 0.00
82, -187500.02, -187500.02, 5613.60, -187500.02, -187500.02, -187500.02, -187500.02, -187500.02, 0.00, 0.00, 0.00
83, -187500.02, -187500.02, 5585.72, -187500.02, -187500.02, -187500.02, -187500.02, -187500.02, 0.00, 0.00, 0.00
84, -187500.02, -187500.02, 5603.11, -187500.02, -187500.02, -187500.02, -187500.02, -187500.02, 0.00, 0.00, 0.00
85, -187500.02, -187500.02, 5618.36, -187500.02, -187500.02, -187500.02, -187500.02, -187500.02, 0.00, 0.00, 0.00
86, -187500.02, -187500.02, 5612.19, -187500.02, -187500.02, -187500.02, -187500.02, -187500.02, -0.01, -0.00, 1.03
87, -187500.02, -187500.02, 5588.07, -187500.02, -187500.02, -187500.02, -187500.02, -187500.02, 0.00, 0.00, 0.00
88, -187500.02, -187500.02, 5590.89, -187500.02, -187500.02, -187500.02, -187500.02, -187500.02, 0.00, 0.00, 0.00
89, -187500.02, -187500.02, 5615.96, -187500.02, -187500.02, -187500.02, -187500.02, -187500.02, 0.00, 0.00, 0.00
90, -187500.02, -187500.02, 5611.65, -187500.02, -187500.02, -187500.02, -187500.02, -187500.02, 0.00, 0.00, 0.00
91, -187500.02, -187500.02, 5586.57, -187500.02, -187500.02, -187500.02, -187500.02, -187500.02, 0.00, 0.00, 0.00
92, -187500.02, -187500.02, 5582.04, -187500.02, -187500.02, -187500.02, -187500.02, -187500.02, 0.00, 0.00, 0.00
93, -187500.02, -187500.02, 5608.83, -187500.02, -187500.02, -187500.02, -187500.02, -187500.02, 0.00, 0.00, 0.00
94, -187500.02, -187500.02, 5610.71, -187500.02, -187500.02, -187500.02, -187500.02, -187500.02, 0.00, 0.00, 0.00
95, -187500.02, -187500.02, 5591.13, -187500.02, -187500.02, -187500.02, -187500.02, -187500.02, 0.00, 0.00, 0.00
96, -187500.02, -187500.02, 5584.78, -187500.02, -187500.02, -187500.02, -187500.02, -187500.02, -0.01, -0.00, 1.03
97, -187500.02, -187500.02, 5610.91, -187500.02, -187500.02, -187500.02, -187500.02, -187500.02, 0.00, 0.00, 0.00
98, -187500.02, -187500.02, 5616.52, -187500.02, -187500.02, -187500.02, -187500.02, -187500.02, 0.00, 0.00, 0.00
99, -187500.02, -187500.02, 5593.23, -187500.02, -187500.02, -187500.02, -187500.02, -187500.02, 0.00, 0.00, 0.00
100, -187500.02, -187500.02, 5576.80, -187500.02, -187500.02, -187500.02, -187500.02, -187500.02, 0.00, 0.00, 0.00
101, -187500.02, -187500.02, 5601.10, -187500.02, -187500.02, -187500.02, -187500.02, -187500.02, 0.00, 0.00, 0.00
102, -187500.02, -187500.02, 5620.82, -187500.02, -187500.02, -187500.02, -187500.02, -187500.02, 0.00, 0.00, 0.00
103, -187500.02, -187500.02, 5598.96, -187500.02, -187500.02, -187500.02, -187500.02, -187500.02, 0.00, 0.00, 0.00
104, -187500.02, -187500.02, 5577.18, -187500.02, -187500.02, -187500.02, -187500.02, -187500.02, 0.00, 0.00, 0.00
105, -187500.02, -187500.02, 5601.64, -187500.02, -187500.02, -187500.02, -187500.02, -187500.02, 0.00, 0.00, 0.00
106, -187500.02, -187500.02, 5622.16, -187500.02, -187500.02, -187500.02, -187500.02, -187500.02, -0.01, -0.00, 1.03
107, -187500.02, -187500.02, 5600.59, -187500.02, -187500.02, -187500.02, -187500.02, -187500.02, 0.00, 0.00, 0.00
108, -187500.02, -187500.02, 5583.89, -187500.02, -187500.02, -187500.02, -187500.02, -187500.02, 0.00, 0.00, 0.00
109, -187500.02, -187500.02, 5589.66, -187500.02, -187500.02, -187500.02, -187500.02, -187500.02, 0.00, 0.00, 0.00
110, -187500.02, -187500.02, 5621.58, -187500.02, -187500.02, -187500.02, -187500.02, -187500.02, 0.00, 0.00, 0.00
111, -187500.02, -187500.02, 5611.76, -187500.02, -187500.02, -187500.02, -187500.02, -187500.02, 0.00, 0.00, 0.00
112, -187500.02, -187500.02, 5589.12, -187500.02, -187500.02, -187500.02, -187500.02, -187500.02, 0.00, 0.00, 0.00
113, -187500.02, -187500.02, 5587.69, -187500.02, -187500.02, -187500.02, -187500.02, -187500.02, 0.00, 0.00, 0.00
114, -187500.02, -187500.02, 5615.05, -187500.02, -187500.02, -187500.02, -187500.02, -187500.02, 0.00, 0.00, 0.00
115, -187500.02, -187500.02, 5615.96, -187500.02, -187500.02, -187500.02, -187500.02, -187500.02, 0.00, 0.00, 0.00
116, -187500.02, -187500.02, 5595.45, -187500.02, -187500.02, -187500.02, -187500.02, -187500.02, -0.01, -0.00, 1.03
117, -187500.02, -187500.02, 5586.28, -187500.02, -187500.02, -187500.02, -187500.02, -187500.02, 0.00, 0.00, 0.00
118, -187500.02, -187500.02, 5611.52, -187500.02, -187500.02, -187500.02, -187500.02, -187500.02, 0.00, 0.00, 0.00
119, -187500.02, -187500.02, 5611.90, -187500.02, -187500.02, -187500.02, -187500.02, -187500.02, 0.00, 0.00, 0.00
120, -187500.02, -187500.02, 5602.58, -187500.02, -187500.02, -187500.02, -187500.02, -187500.02, 0.00, 0.00, 0.00
121, -187500.02, -187500.02, 5593.32, -187500.02, -187500.02, -187500.02, -187500.02, -187500.02, 0.00, 0.00, 0.00
122, -187500.02, -187500.02, 5613.93, -187500.02, -187500.02, -187500.02, -187500.02, -187500.02, 0.00, 0.00, 0.00
123, -187500.02, -187500.02, 5620.73, -187500.02, -187500.02, -187500.02, -187500.02, -187500.02, 0.00, 0.00, 0.00
124, -187500.02, -187500.02, 5602.64, -187500.02, -187500.02, -187500.02, -187500.02, -187500.02, 0.00, 0.00, 0.00
125, -187500.02, -187500.02, 5589.03, -187500.02, -187500.02, -187500.02, -187500.02, -187500.02, 0.00, 0.00, 0.00
126, -187500.02, -187500.02, 5608.50, -187500.02, -187500.02, -187500.02, -187500.02, -187500.02, 0.00, 0.00, 0.00
127, -187500.02, -187500.02, 5625.08, -187500.02, -187500.02, -187500.02, -187500.02, -187500.02, -0.01, -0.00, 1.04
128, -187500.02, -187500.02, 5613.55, -187500.02, -187500.02, -187500.02, -187500.02, -187500.02, 0.00, 0.00, 0.00
129, -187500.02, -187500.02, 5593.03, -187500.02, -187500.02, -187500.02, -187500.02, -187500.02, 0.00, 0.00, 0.00
130, -187500.02, -187500.02, 5607.29, -187500.02, -187500.02, -187500.02, -187500.02, -187500.02, 0.00, 0.00, 0.00
131, -187500.02, -187500.02, 5631.14, -187500.02, -187500.02, -187500.02, -187500.02, -187500.02, 0.00, 0.00, 0.00
132, -187500.02, -187500.02, 5617.24, -187500.02, -187500.02, -187500.02, -187500.02, -187500.02, 0.00, 0.00, 0.00
133, -187500.02, -187500.02, 5593.32, -187500.02, -187500.02, -187500.02, -187500.02, -187500.02, 0.00, 0.00, 0.00
134, -187500.02, -187500.02, 5600.12, -187500.02, -187500.02, -187500.02, -187500.02, -187500.02, 0.00, 0.00, 0.00
135, -187500.02, -187500.02, 5624.21, -187500.02, -187500.02, -187500.02, -187500.02, -187500.02, 0.00, 0.00, 0.00
136, -187500.02, -187500.02, 5617.80, -187500.02, -187500.02, -187500.02, -187500.02, -187500.02, 0.00, 0.00, 0.00
137, -187500.02, -187500.02, 5601.08, -187500.02, -187500.02, -187500.02, -187500.02, -187500.02, -0.01, -0.00, 1.04
138, -187500.02, -187500.02, 5596.07, -187500.02, -187500.02, -187500.02, -187500.02, -187500.02, 0.00, 0.00, 0.00
139, -187500.02, -187500.02, 5619.90, -187500.02, -187500.02, -187500.02, -187500.02, -187500.02, 0.00, 0.00, 0.00
140, -187500.02, -187500.02, 5622.45, -187500.02, -187500.02, -187500.02, -187500.02, -187500.02, 0.00, 0.00, 0.00
141, -187500.02, -187500.02, 5607.34, -187500.02, -187500.02, -187500.02, -187500.02, -187500.02, 0.00, 0.00, 0.00
142, -187500.02, -187500.02, 5597.28, -187500.02, -187500.02, -187500.02, -187500.02, -187500.02, 0.00, 0.00, 0.00
143, -187500.02, -187500.02, 5616.39, -187500.02, -187500.02, -187500.02, -187500.02, -187500.02, 0.00, 0.00, 0.00
144, -187500.02, -187500.02, 5615.65, -187500.02, -187500.02, -187500.02, -187500.02, -187500.02, 0.00, 0.00, 0.00
145, -187500.02, -187500.02, 5609.53, -187500.02, -187500.02, -187500.02, -187500.02, -187500.02, 0.00, 0.00, 0.00
146, -187500.02, -187500.02, 5594.60, -187500.02, -187500.02, -187500.02, -187500.02, -187500.02, 0.00, 0.00, 0.00
147, -187500.02, -187500.02, 5617.02, -187500.02, -187500.02, -187500.02, -187500.02, -187500.02, -0.01, -0.01, 1.04
148, -187500.02, -187500.02, 5624.50, -187500.02, -187500.02, -187500.02, -187500.02, -187500.02, 0.00, 0.00, 0.00
149, -187500.02, -187500.02, 5612.57, -187500.02, -187500.02, -187500.02, -187500.02, -187500.02, 0.00, 0.00, 0.00
150, -187500.02, -187500.02, 5592.43, -187500.02, -187500.02, -187500.02, -187500.02, -187500.02, 0.00, 0.00, 0.00
151, -187500.02, -187500.02, 5607.69, -187500.02, -187500.02, -187500.02, -187500.02, -187500.02, 0.00, 0.00, 0.00
152, -187500.02, -187500.02, 5624.06, -187500.02, -187500.02, -187500.02, -187500.02, -187500.02, 0.00, 0.00, 0.00
153, -187500.02, -187500.02, 5603.72, -187500.02, -187500.02, -187500.02, -187500.02, -187500.02, 0.00, 0.00, 0.00
154, -187500.02, -187500.02, 5584.94, -187500.02, -187500.02, -187500.02, -187500.02, -187500.02, 0.00, 0.00, 0.00
155, -187500.02, -187500.02, 5603.14, -187500.02, -187500.02, -187500.02, -187500.02, -187500.02, 0.00, 0.00, 0.00
156, -187500.02, -187500.02, 5627.68, -187500.02, -187500.02, -187500.02, -187500.02, -187500.02, 0.00, 0.00, 0.00
157, -187500.02, -187500.02, 5615.92, -187500.02, -187500.02, -187500.02, -187500.02, -187500.02, -0.00, -0.00, 1.03
158, -187500.02, -187500.02, 5590.84, -187500.02, -187500.02, -187500.02, -187500.02, -187500.02, 0.00, 0.00, 0.00
159, -187500.02, -187500.02, 5597.99, -187500.02, -187500.02, -187500.02, -187500.02, -187500.02, 0.00, 0.00, 0.00
160, -187500.02, -187500.02, 5624.21, -187500.02, -187500.02, -187500.02, -187500.02, -187500.02, 0.00, 0.00, 0.00
161, -187500.02, -187500.02, 5619.63, -187500.02, -187500.02, -187500.02, -187500.02, -187500.02, 0.00, 0.00, 0.00
162, -187500.02, -187500.02, 5599.67, -187500.02, -187500.02, -187500.02, -187500.02, -187500.02, 0.00, 0.00, 0.00
163, -187500.02, -187500.02, 5596.18, -187500.02, -187500.02, -187500.02, -187500.02, -187500.02, 0.00, 0.00, 0.00
164, -187500.02, -187500.02, 5618.89, -187500.02, -187500.02, -187500.02, -187500.02, -187500.02, 0.00, 0.00, 0.00
165, -187500.02, -187500.02, 5617.86, -187500.02, -187500.02, -187500.02, -187500.02, -187500.02, 0.00, 0.00, 0.00
166, -187500.02, -187500.02, 5598.71, -187500.02, -187500.02, -187500.02, -187500.02, -187500.02, 0.00, 0.00, 0.00
167, -187500.02, -187500.02, 5585.99, -187500.02, -187500.02, -187500.02, -187500.02, -187500.02, -0.01, -0.00, 1.02
168, -187500.02, -187500.02, 5613.28, -187500.02, -187500.02, -187500.02, -187500.02, -187500.02, 0.00, 0.00, 0.00
169, -187500.02, -187500.02, 5616.52, -187500.02, -187500.02, -187500.02, -187500.02, -187500.02, 0.00, 0.00, 0.00
170, -187500.02, -187500.02, 5598.55, -187500.02, -187500.02, -187500.02, -187500.02, -187500.02, 0.00, 0.00, 0.00
171, -187500.02, -187500.02, 5586.21, -187500.02, -187500.02, -187500.02, -187500.02, -187500.02, 0.00, 0.00, 0.00
172, -187500.02, -187500.02, 5605.77, -187500.02, -187500.02, -187500.02, -187500.02, -187500.02, 0.00, 0.00, 0.00
173, -187500.02, -187500.02, 5618.89, -187500.02, -187500.02, -187500.02, -187500.02, -187500.02, 0.00, 0.00, 0.00
174, -187500.02, -187500.02, 5606.71, -187500.02, -187500.02, -187500.02, -187500.02, -187500.02, 0.00, 0.00, 0.00
175, -187500.02, -187500.02, 5592.32, -187500.02, -187500.02, -187500.02, -187500.02, -187500.02, 0.00, 0.00, 0.00
176, -187500.02, -187500.02, 5601.48, -187500.02, -187500.02, -187500.02, -187500.02, -187500.02, 0.00, 0.00, 0.00
177, -187500.02, -187500.02, 5618.96, -187500.02, -187500.02, -187500.02, -187500.02, -187500.02, -0.01, -0.00, 1.03
178, -187500.02, -187500.02, 5603.94, -187500.02, -187500.02, -187500.02, -187500.02, -187500.02, 0.00, 0.00, 0.00
179, -187500.02, -187500.02, 5586.62, -187500.02, -187500.02, -187500.02, -187500.02, -187500.02, 0.00, 0.00, 0.00
180, -187500.02, -187500.02, 5595.80, -187500.02, -187500.02, -187500.02, -187500.02, -187500.02, 0.00, 0.00, 0.00
181, -187500.02, -187500.02, 5613.17, -187500.02, -187500.02, -187500.02, -187500.02, -187500.02, 0.00, 0.00, 0.00
182, -187500.02, -187500.02, 5610.91, -187500.02, -187500.02, -187500.02, -187500.02, -187500.02, 0.00, 0.00, 0.00
183, -187500.02, -187500.02, 5588.56, -187500.02, -187500.02, -187500.02, -187500.02, -187500.02, 0.00, 0.00, 0.00
184, -187500.02, -187500.02, 5588.20, -187500.02, -187500.02, -187500.02, -187500.02, -187500.02, 0.00, 0.00, 0.00
185, -187500.02, -187500.02, 5611.03, -187500.02, -187500.02, -187500.02, -187500.02, -187500.02, 0.00, 0.00, 0.00
186, -187500.02, -187500.02, 5610.24, -187500.02, -187500.02, -187500.02, -187500.02, -187500.02, 0.00, 0.00, 0.00
187, -187500.02, -187500.02, 5588.11, -187500.02, -187500.02, -187500.02, -187500.02, -187500.02, 0.00, 0.00, 0.00
188, -187500.02, -187500.02, 5585.30, -187500.02, -187500.02, -187500.02, -187500.02, -187500.02, -0.01, -0.00, 1.04
189, -187500.02, -187500.02, 5611.27, -187500.02, -187500.02, -187500.02, -187500.02, -187500.02, 0.00, 0.00, 0.00
190, -187500.02, -187500.02, 5611.43, -187500.02, -187500.02, -187500.02, -187500.02, -187500.02, 0.00, 0.00, 0.00
191, -187500.02, -187500.02, 5594.42, -187500.02, -187500.02, -187500.02, -187500.02, -187500.02, 0.00, 0.00, 0.00
192, -187500.02, -187500.02, 5582.82, -187500.02, -187500.02, -187500.02, -187500.02, -187500.02, 0.00, 0.00, 0.00
193, -187500.02, -187500.02, 5605.33, -187500.02, -187500.02, -187500.02, -187500.02, -187500.02, 0.00, 0.00, 0.00
194, -187500.02, -187500.02, 5610.76, -187500.02, -187500.02, -187500.02, -187500.02, -187500.02, 0.00, 0.00, 0.00
195, -187500.02, -187500.02, 5596.25, -187500.02, -187500.02, -187500.02, -187500.02, -187500.02, 0.00, 0.00, 0.00
196, -187500.02, -187500.02, 5579.55, -187500.02, -187500.02, -187500.02, -187500.02, -187500.02, 0.00, 0.00, 0.00
197, -187500.02, -187500.02, 5593.90, -187500.02, -187500.02, -187500.02, -187500.02, -187500.02, 0.00, 0.00, 0.00
198, -187500.02, -187500.02, 5611.11, -187500.02, -187500.02, -187500.02, -187500.02, -187500.02, -0.01, 0.00, 1.03
199, -187500.02, -187500.02, 5601.30, -187500.02, -187500.02, -187500.02, -187500.02, -187500.02, 0.00, 0.00, 0.00
200, -187500.02, -187500.02, 5577.77, -187500.02, -187500.02, -187500.02, -187500.02, -187500.02, 0.00, 0.00, 0.00
201, -187500.02, -187500.02, 5589.08, -187500.02, -187500.02, -187500.02, -187500.02, -187500.02, 0.00, 0.00, 0.00
202, -187500.02, -187500.02, 5615.03, -187500.02, -187500.02, -187500.02, -187500.02, -187500.02, 0.00, 0.00, 0.00
203, -187500.02, -187500.02, 5609.15, -187500.02, -187500.02, -187500.02, -187500.02, -187500.02, 0.00, 0.00, 0.00
204, -187500.02, -187500.02, 5581.59, -187500.02, -187500.02, -187500.02, -187500.02, -187500.02, 0.00, 0.00, 0.00
205, -187500.02, -187500.02, 5584.34, -187500.02, -187500.02, -187500.02, -187500.02, -187500.02, 0.00, 0.00, 0.00
206, -187500.02, -187500.02, 5612.25, -187500.02, -187500.02, -187500.02, -187500.02, -187500.02, 0.00, 0.00, 0.00
207, -187500.02, -187500.02, 5606.35, -187500.02, -187500.02, -187500.02, -187500.02, -187500.02, 0.00, 0.00, 0.00
208, -187500.02, -187500.02, 5590.31, -187500.02, -187500.02, -187500.02, -187500.02, -187500.02, -0.01, -0.00, 1.04
209, -187500.02, -187500.02, 5589.63, -187500.02, -187500.02, -187500.02, -187500.02, -187500.02, 0.00, 0.00, 0.00
210, -187500.02, -187500.02, 5615.14, -187500.02, -187500.02, -187500.02, -187500.02, -187500.02, 0.00, 0.00, 0.00
211, -187500.02, -187500.02, 5612.77, -187500.02, -187500.02, -187500.02, -187500.02, -187500.02, 0.00, 0.00, 0.00
212, -187500.02, -187500.02, 5594.26, -187500.02, -187500.02, -187500.02, -187500.02, -187500.02, 0.00, 0.00, 0.00
213, -187500.02, -187500.02, 5587.33, -187500.02, -187500.02, -187500.02, -187500.02, -187500.02, 0.00, 0.00, 0.00
214, -187500.02, -187500.02, 5613.37, -187500.02, -187500.02, -187500.02, -187500.02, -187500.02, 0.00, 0.00, 0.00
215, -187500.02, -187500.02, 5616.84, -187500.02, -187500.02, -187500.02, -187500.02, -187500.02, 0.00, 0.00, 0.00
216, -187500.02, -187500.02, 5601.15, -187500.02, -187500.02, -187500.02, -187500.02, -187500.02, 0.00, 0.00, 0.00
217, -187500.02, -187500.02, 5583.85, -187500.02, -187500.02, -187500.02, -187500.02, -187500.02, 0.00, 0.00, 0.00
218, -187500.02, -187500.02, 5602.40, -187500.02, -187500.02, -187500.02, -187500.02, -187500.02, -0.01, 0.00, 1.03
219, -187500.02, -187500.02, 5617.95, -187500.02, -187500.02, -187500.02, -187500.02, -187500.02, 0.00, 0.00, 0.00
220, -187500.02, -187500.02, 5601.53, -187500.02, -187500.02, -187500.02, -187500.02, -187500.02, 0.00, 0.00, 0.00
221, -187500.02, -187500.02, 5586.80, -187500.02, -187500.02, -187500.02, -187500.02, -187500.02, 0.00, 0.00, 0.00
222, -187500.02, -187500.02, 5602.87, -187500.02, -187500.02, -187500.02, -187500.02, -187500.02, 0.00, 0.00, 0.00
223, -187500.02, -187500.02, 5619.70, -187500.02, -187500.02, -187500.02, -187500.02, -187500.02, 0.00, 0.00, 0.00
224, -187500.02, -187500.02, 5605.39, -187500.02, -187500.02, -187500.02, -187500.02, -187500.02, 0.00, 0.00, 0.00
225, -187500.02, -187500.02, 5584.00, -187500.02, -187500.02, -187500.02, -187500.02, -187500.02, 0.00, 0.00, 0.00
226, -187500.02, -187500.02, 5595.60, -187500.02, -187500.02, -187500.02, -187500.02, -187500.02, 0.00, 0.00, 0.00
227, -187500.02, -187500.02, 5613.15, -187500.02, -187500.02, -187500.02, -187500.02, -187500.02, 0.00, 0.00, 0.00
228, -187500.02, -187500.02, 5607.85, -187500.02, -187500.02, -187500.02, -187500.02, -187500.02, -0.01, -0.00, 1.04
229, -187500.02, -187500.02, 5585.03, -187500.02, -187500.02, -187500.02, -187500.02, -187500.02, 0.00, 0.00, 0.00
230, -187500.02, -187500.02, 5592.14, -187500.02, -187500.02, -187500.02, -187500.02, -187500.02, 0.00, 0.00, 0.00
231, -187500.02, -187500.02, 5611.70, -187500.02, -187500.02, -187500.02, -187500.02, -187500.02, 0.00, 0.00, 0.00
232, -187500.02, -187500.02, 5610.98, -187500.02, -187500.02, -187500.02, -187500.02, -187500.02, 0.00, 0.00, 0.00
233, -187500.02, -187500.02, 5589.99, -187500.02, -187500.02, -187500.02, -187500.02, -187500.02, 0.00, 0.00, 0.00
234, -187500.02, -187500.02, 5587.69, -187500.02, -187500.02, -187500.02, -187500.02, -187500.02, 0.00, 0.00, 0.00
235, -187500.02, -187500.02, 5613.64, -187500.02, -187500.02, -187500.02, -187500.02, -187500.02, 0.00, 0.00, 0.00
236, -187500.02, -187500.02, 5620.77, -187500.02, -187500.02, -187500.02, -187500.02, -187500.02, 0.00, 0.00, 0.00
237, -187500.02, -187500.02, 5599.92, -187500.02, -187500.02, -187500.02, -187500.02, -187500.02, 0.00, 0.00, 0.00
238, -187500.02, -187500.02, 5591.38, -187500.02, -187500.02, -187500.02, -187500.02, -187500.02, -0.01, -0.00, 1.04
239, -187500.02, -187500.02, 5609.73, -187500.02, -187500.02, -187500.02, -187500.02, -187500.02, 0.00, 0.00, 0.00
240, -187500.02, -187500.02, 5614.04, -187500.02, -187500.02, -187500.02, -187500.02, -187500.02, 0.00, 0.00, 0.00
241, -187500.02, -187500.02, 5597.48, -187500.02, -187500.02, -187500.02, -187500.02, -187500.02, 0.00, 0.00, 0.00
242, -187500.02, -187500.02, 5580.52, -187500.02, -187500.02, -187500.02, -187500.02, -187500.02, 0.00, 0.00, 0.00
243, -187500.02, -187500.02, 5609.30, -187500.02, -187500.02, -187500.02, -187500.02, -187500.02, 0.00, 0.00, 0.00
244, -187500.02, -187500.02, 5621.02, -187500.02, -187500.02, -187500.02, -187500.02, -187500.02, 0.00, 0.00, 0.00
245, -187500.02, -187500.02, 5600.88, -187500.02, -187500.02, -187500.02, -187500.02, -187500.02, 0.00, 0.00, 0.00
246, -187500.02, -187500.02, 5584.16, -187500.02, -187500.02, -187500.02, -187500.02, -187500.02, 0.00, 0.00, 0.00
247, -187500.02, -187500.02, 5603.78, -187500.02, -187500.02, -187500.02, -187500.02, -187500.02, 0.00, 0.00, 0.00
248, -187500.02, -187500.02, 5621.62, -187500.02, -187500.02, -187500.02, -187500.02, -187500.02, -0.01, -0.00, 1.04
249, -187500.02, -187500.02, 5602.82, -187500.02, -187500.02, -187500.02, -187500.02, -187500.02, 0.00, 0.00, 0.00
250, -187500.02, -187500.02, 5591.15, -187500.02, -187500.02, -187500.02, -187500.02, -187500.02, 0.00, 0.00, 0.00
251, -187500.02, -187500.02, 5592.94, -187500.02, -187500.02, -187500.02, -187500.02, -187500.02, 0.00, 0.00, 0.00
252, -187500.02, -187500.02, 5612.95, -187500.02, -187500.02, -187500.02, -187500.02, -187500.02, 0.00, 0.00, 0.00
253, -187500.02, -187500.02, 5607.52, -187500.02, -187500.02, -187500.02, -187500.02, -187500.02, 0.00, 0.00, 0.00
254, -187500.02, -187500.02, 5584.38, -187500.02, -187500.02, -187500.02, -187500.02, -187500.02, 0.00, 0.00, 0.00
255, -187500.02, -187500.02, 5595.04, -187500.02, -187500.02, -187500.02, -187500.02, -187500.02, 0.00, 0.00, 0.00
0, -187500.02, -187500.02, 5617.71, -187500.02, -187500.02, -187500.02, -187500.02, -187500.02, 0.00, 0.00, 0.00
1, -187500.02, -187500.02, 5615.94, -187500.02, -187500.02, -187500.02, -187500.02, -187500.02, 0.00, 0.00, 0.00
2, -187500.02, -187500.02, 5599.78, -187500.02, -187500.02, -187500.02, -187500.02, -187500.02, 0.00, 0.00, 0.00
3, -187500.02, -187500.02, 5589.88, -187500.02, -187500.02, -187500.02, -187500.02, -187500.02, -0.01, -0.01, 1.04
4, -187500.02, -187500.02, 5611.36, -187500.02, -187500.02, -187500.02, -187500.02, -187500.02, 0.00, 0.00, 0.00
5, -187500.02, -187500.02, 5618.09, -187500.02, -187500.02, -187500.02, -187500.02, -187500.02, 0.00, 0.00, 0.00
6, -187500.02, -187500.02, 5598.87, -187500.02, -187500.02, -187500.02, -187500.02, -187500.02, 0.00, 0.00, 0.00
7, -187500.02, -187500.02, 5583.02, -187500.02, -187500.02, -187500.02, -187500.02, -187500.02, 0.00, 0.00, 0.00
8, -187500.02, -187500.02, 5604.50, -187500.02, -187500.02, -187500.02, -187500.02, -187500.02, 0.00, 0.00, 0.00
9, -187500.02, -187500.02, 5617.84, -187500.02, -187500.02, -187500.02, -187500.02, -187500.02, 0.00, 0.00, 0.00
10, -187500.02, -187500.02, 5596.23, -187500.02, -187500.02, -187500.02, -187500.02, -187500.02, 0.00, 0.00, 0.00
11, -187500.02, -187500.02, 5588.49, -187500.02, -187500.02, -187500.02, -187500.02, -187500.02, 0.00, 0.00, 0.00
12, -187500.02, -187500.02, 5607.38, -187500.02, -187500.02, -187500.02, -187500.02, -187500.02, 0.00, 0.00, 0.00
13, -187500.02, -187500.02, 5621.66, -187500.02, -187500.02, -187500.02, -187500.02, -187500.02, -0.01, -0.00, 1.03
14, -187500.02, -187500.02, 5600.77, -187500.02, -187500.02, -187500.02, -187500.02, -187500.02, 0.00, 0.00, 0.00
15, -187500.02, -187500.02, 5584.78, -187500.02, -187500.02, -187500.02, -187500.02, -187500.02, 0.00, 0.00, 0.00
16, -187500.02, -187500.02, 5598.64, -187500.02, -187500.02, -187500.02, -187500.02, -187500.02, 0.00, 0.00, 0.00
17, -187500.02, -187500.02, 5617.69, -187500.02, -187500.02, -187500.02, -187500.02, -187500.02, 0.00, 0.00, 0.00
18, -187500.02, -187500.02, 5612.50, -187500.02, -187500.02, -187500.02, -187500.02, -187500.02, 0.00, 0.00, 0.00
19, -187500.02, -187500.02, 5590.93, -187500.02, -187500.02, -187500.02, -187500.02, -187500.02, 0.00, 0.00, 0.00
20, -187500.02, -187500.02, 5591.58, -187500.02, -187500.02, -187500.02, -187500.02, -187500.02, 0.00, 0.00, 0.00
21, -187500.02, -187500.02, 5616.37, -187500.02, -187500.02, -187500.02, -187500.02, -187500.02, 0.00, 0.00, 0.00
22, -187500.02, -187500.02, 5613.37, -187500.02, -187500.02, -187500.02, -187500.02, -187500.02, 0.00, 0.00, 0.00
23, -187500.02, -187500.02, 5584.27, -187500.02, -187500.02, -187500.02, -187500.02, -187500.02, -0.01, -0.00, 1.03
24, -187500.02, -187500.02, 5587.11, -187500.02, -187500.02, -187500.02, -187500.02, -187500.02, 0.00, 0.00, 0.00
25, -187500.02, -187500.02, 5611.05, -187500.02, -187500.02, -187500.02, -187500.02, -187500.02, 0.00, 0.00, 0.00
26, -187500.02, -187500.02, 5609.84, -187500.02, -187500.02, -187500.02, -187500.02, -187500.02, 0.00, 0.00, 0.00
27, -187500.02, -187500.02, 5587.53, -187500.02, -187500.02, -187500.02, -187500.02, -187500.02, 0.00, 0.00, 0.00
28, -187500.02, -187500.02, 5579.96, -187500.02, -187500.02, -187500.02, -187500.02, -187500.02, 0.00, 0.00, 0.00
29, -187500.02, -187500.02, 5598.58, -187500.02, -187500.02, -187500.02, -187500.02, -187500.02, 0.00, 0.00, 0.00
30, -187500.02, -187500.02, 5602.49, -187500.02, -187500.02, -187500.02, -187500.02, -187500.02, 0.00, 0.00, 0.00
31, -187500.02, -187500.02, 5596.12, -187500.02, -187500.02, -187500.02, -187500.02, -187500.02, 0.00, 0.00, 0.00
32, -187500.02, -187500.02, 5587.44, -187500.02, -187500.02, -187500.02, -187500.02, -187500.02, 0.00, 0.00, 0.00
33, -187500.02, -187500.02, 5606.85, -187500.02, -187500.02, -187500.02, -187500.02, -187500.02, -0.01, -0.01, 1.04
34, -187500.02, -187500.02, 5616.37, -187500.02, -187500.02, -187500.02, -187500.02, -187500.02, 0.00, 0.00, 0.00
35, -187500.02, -187500.02, 5598.91, -187500.02, -187500.02, -187500.02, -187500.02, -187500.02, 0.00, 0.00, 0.00
36, -187500.02, -187500.02, 5588.25, -187500.02, -187500.02, -187500.02, -187500.02, -187500.02, 0.00, 0.00, 0.00
37, -187500.02, -187500.02, 5604.25, -187500.02, -187500.02, -187500.02, -187500.02, -187500.02, 0.00, 0.00, 0.00
38, -187500.02, -187500.02, 5612.77, -187500.02, -187500.02, -187500.02, -187500.02, -187500.02, 0.00, 0.00, 0.00
39, -187500.02, -187500.02, 5596.52, -187500.02, -187500.02, -187500.02, -187500.02, -187500.02, 0.00, 0.00, 0.00
40, -187500.02, -187500.02, 5583.71, -187500.02, -187500.02, -187500.02, -187500.02, -187500.02, 0.00, 0.00, 0.00
41, -187500.02, -187500.02, 5591.00, -187500.02, -187500.02, -187500.02, -187500.02, -187500.02, 0.00, 0.00, 0.00
42, -187500.02, -187500.02, 5612.37, -187500.02, -187500.02, -187500.02, -187500.02, -187500.02, 0.00, 0.00, 0.00
43, -187500.02, -187500.02, 5604.01, -187500.02, -187500.02, -187500.02, -187500.02, -187500.02, -0.01, -0.01, 1.03
44, -187500.02, -187500.02, 5580.31, -187500.02, -187500.02, -187500.02, -187500.02, -187500.02, 0.00, 0.00, 0.00
45, -187500.02, -187500.02, 5581.25, -187500.02, -187500.02, -187500.02, -187500.02, -187500.02, 0.00, 0.00, 0.00
46, -187500.02, -187500.02, 5608.59, -187500.02, -187500.02, -187500.02, -187500.02, -187500.02, 0.00, 0.00, 0.00
47, -187500.02, -187500.02, 5609.01, -187500.02, -187500.02, -187500.02, -187500.02, -187500.02, 0.00, 0.00, 0.00
48, -187500.02, -187500.02, 5586.55, -187500.02, -187500.02, -187500.02, -187500.02, -187500.02, 0.00, 0.00, 0.00
49, -187500.02, -187500.02, 5587.09, -187500.02, -187500.02, -187500.02, -187500.02, -187500.02, 0.00, 0.00, 0.00
50, -187500.02, -187500.02, 5608.70, -187500.02, -187500.02, -187500.02, -187500.02, -187500.02, 0.00, 0.00, 0.00
51, -187500.02, -187500.02, 5611.45, -187500.02, -187500.02, -187500.02, -187500.02, -187500.02, 0.00, 0.00, 0.00
52, -187500.02, -187500.02, 5587.62, -187500.02, -187500.02, -187500.02, -187500.02, -187500.02, 0.00, 0.00, 0.00
53, -187500.02, -187500.02, 5574.55, -187500.02, -187500.02, -187500.02, -187500.02, -187500.02, -0.01, 0.00, 1.03
54, -187500.02, -187500.02, 5599.69, -187500.02, -187500.02, -187500.02, -187500.02, -187500.02, 0.00, 0.00, 0.00
55, -187500.02, -187500.02, 5615.00, -187500.02, -187500.02, -187500.02, -187500.02, -187500.02, 0.00, 0.00, 0.00
56, -187500.02, -187500.02, 5596.45, -187500.02, -187500.02, -187500.02, -187500.02, -187500.02, 0.00, 0.00, 0.00
57, -187500.02, -187500.02, 5582.86, -187500.02, -187500.02, -187500.02, -187500.02, -187500.02, 0.00, 0.00, 0.00
58, -187500.02, -187500.02, 5602.71, -187500.02, -187500.02, -187500.02, -187500.02, -187500.02, 0.00, 0.00, 0.00
59, -187500.02, -187500.02, 5617.06, -187500.02, -187500.02, -187500.02, -187500.02, -187500.02, 0.00, 0.00, 0.00
60, -187500.02, -187500.02, 5597.06, -187500.02, -187500.02, -187500.02, -187500.02, -187500.02, 0.00, 0.00, 0.00
61, -187500.02, -187500.02, 5575.28, -187500.02, -187500.02, -187500.02, -187500.02, -187500.02, 0.00, 0.00, 0.00
62, -187500.02, -187500.02, 5600.81, -187500.02, -187500.02, -187500.02, -187500.02, -187500.02, 0.00, 0.00, 0.00
63, -187500.02, -187500.02, 5618.54, -187500.02, -187500.02, -187500.02, -187500.02, -187500.02, 0.00, 0.00, 0.00
64, -187500.02, -187500.02, 5599.29, -187500.02, -187500.02, -187500.02, -187500.02, -187500.02, -0.01, 0.00, 1.03
65, -187500.02, -187500.02, 5586.46, -187500.02, -187500.02, -187500.02, -187500.02, -187500.02, 0.00, 0.00, 0.00
66, -187500.02, -187500.02, 5595.11, -187500.02, -187500.02, -187500.02, -187500.02, -187500.02, 0.00, 0.00, 0.00
67, -187500.02, -187500.02, 5614.83, -187500.02, -187500.02, -187500.02, -187500.02, -187500.02, 0.00, 0.00, 0.00
68, -187500.02, -187500.02, 5610.87, -187500.02, -187500.02, -187500.02, -187500.02, -187500.02, 0.00, 0.00, 0.00
69, -187500.02, -187500.02, 5591.24, -187500.02, -187500.02, -187500.02, -187500.02, -187500.02, 0.00, 0.00, 0.00
70, -187500.02, -187500.02, 5586.66, -187500.02, -187500.02, -187500.02, -187500.02, -187500.02, 0.00, 0.00, 0.00
71, -187500.02, -187500.02, 5613.37, -187500.02, -187500.02, -187500.02, -187500.02, -187500.02, 0.00, 0.00, 0.00
72, -187500.02, -187500.02, 5612.37, -187500.02, -187500.02, -187500.02, -187500.02, -187500.02, 0.00, 0.00, 0.00
73, -187500.02, -187500.02, 5598.78, -187500.02, -187500.02, -187500.02, -187500.02, -187500.02, 0.00, 0.00, 0.00
74, -187500.02, -187500.02, 5587.47, -187500.02, -187500.02, -187500.02, -187500.02, -187500.02, -0.01, 0.00, 1.03
75, -187500.02, -187500.02, 5614.18, -187500.02, -187500.02, -187500.02, -187500.02, -187500.02, 0.00, 0.00, 0.00
76, -187500.02, -187500.02, 5618.40, -187500.02, -187500.02, -187500.02, -187500.02, -187500.02, 0.00, 0.00, 0.00
77, -187500.02, -187500.02, 5595.18, -187500.02, -187500.02, -187500.02, -187500.02, -187500.02, 0.00, 0.00, 0.00
78, -187500.02, -187500.02, 5579.00, -187500.02, -187500.02, -187500.02, -187500.02, -187500.02, 0.00, 0.00, 0.00
79, -187500.02, -187500.02, 5610.73, -187500.02, -187500.02, -187500.02, -187500.02, -187500.02, 0.00, 0.00, 0.00
80, -187500.02, -187500.02, 5618.40, -187500.02, -187500.02, -187500.02, -187500.02, -187500.02, 0.00, 0.00, 0.00
81, -187500.02, -187500.02, 5602.42, -187500.02, -187500.02, -187500.02, -187500.02, -187500.02, 0.00, 0.00, 0.00
82, -187500.02, -187500.02, 5588.36, -187500.02, -187500.02, -187500.02, -187500.02, -187500.02, 0.00, 0.00, 0.00
83, -187500.02, -187500.02, 5606.73, -187500.02, -187500.02, -187500.02, -187500.02, -187500.02, 0.00, 0.00, 0.00
84, -187500.02, -187500.02, 5614.38, -187500.02, -187500.02, -187500.02, -187500.02, -187500.02, -0.01, -0.00, 1.03
85, -187500.02, -187500.02, 5601.30, -187500.02, -187500.02, -187500.02, -187500.02, -187500.02, 0.00, 0.00, 0.00
86, -187500.02, -187500.02, 5589.61, -187500.02, -187500.02, -187500.02, -187500.02, -187500.02, 0.00, 0.00, 0.00
87, -187500.02, -187500.02, 5600.90, -187500.02, -187500.02, -187500.02, -187500.02, -187500.02, 0.00, 0.00, 0.00
88, -187500.02, -187500.02, 5626.29, -187500.02, -187500.02, -187500.02, -187500.02, -187500.02, 0.00, 0.00, 0.00
89, -187500.02, -187500.02, 5610.76, -187500.02, -187500.02, -187500.02, -187500.02, -187500.02, 0.00, 0.00, 0.00
90, -187500.02, -187500.02, 5587.13, -187500.02, -187500.02, -187500.02, -187500.02, -187500.02, 0.00, 0.00, 0.00
91, -187500.02, -187500.02, 5597.55, -187500.02, -187500.02, -187500.02, -187500.02, -187500.02, 0.00, 0.00, 0.00
92, -187500.02, -187500.02, 5618.47, -187500.02, -187500.02, -187500.02, -187500.02, -187500.02, 0.00, 0.00, 0.00
93, -187500.02, -187500.02, 5616.93, -187500.02, -187500.02, -187500.02, -187500.02, -187500.02, 0.00, 0.00, 0.00
94, -187500.02, -187500.02, 5592.79, -187500.02, -187500.02, -187500.02, -187500.02, -187500.02, -0.01, -0.00, 1.04
95, -187500.02, -187500.02, 5584.54, -187500.02, -187500.02, -187500.02, -187500.02, -187500.02, 0.00, 0.00, 0.00
96, -187500.02, -187500.02, 5615.21, -187500.02, -187500.02, -187500.02, -187500.02, -187500.02, 0.00, 0.00, 0.00
97, -187500.02, -187500.02, 5619.43, -187500.02, -187500.02, -187500.02, -187500.02, -187500.02, 0.00, 0.00, 0.00
98, -187500.02, -187500.02, 5594.66, -187500.02, -187500.02, -187500.02, -187500.02, -187500.02, 0.00, 0.00, 0.00
99, -187500.02, -187500.02, 5589.34, -187500.02, -187500.02, -187500.02, -187500.02, -187500.02, 0.00, 0.00, 0.00
100, -187500.02, -187500.02, 5614.06, -187500.02, -187500.02, -187500.02, -187500.02, -187500.02, 0.00, 0.00, 0.00
101, -187500.02, -187500.02, 5610.42, -187500.02, -187500.02, -187500.02, -187500.02, -187500.02, 0.00, 0.00, 0.00
102, -187500.02, -187500.02, 5595.22, -187500.02, -187500.02, -187500.02, -187500.02, -187500.02, 0.00, 0.00, 0.00
103, -187500.02, -187500.02, 5584.11, -187500.02, -187500.02, -187500.02, -187500.02, -187500.02, 0.00, 0.00, 0.00
104, -187500.02, -187500.02, 5602.82, -187500.02, -187500.02, -187500.02, -187500.02, -187500.02, -0.01, -0.00, 1.04
105, -187500.02, -187500.02, 5617.91, -187500.02, -187500.02, -187500.02, -187500.02, -187500.02, 0.00, 0.00, 0.00
106, -187500.02, -187500.02, 5596.94, -187500.02, -187500.02, -187500.02, -187500.02, -187500.02, 0.00, 0.00, 0.00
107, -187500.02, -187500.02, 5578.17, -187500.02, -187500.02, -187500.02, -187500.02, -187500.02, 0.00, 0.00, 0.00
108, -187500.02, -187500.02, 5593.57, -187500.02, -187500.02, -187500.02, -187500.02, -187500.02, 0.00, 0.00, 0.00
109, -187500.02, -187500.02, 5615.29, -187500.02, -187500.02, -187500.02, -187500.02, -187500.02, 0.00, 0.00, 0.00
110, -187500.02, -187500.02, 5602.93, -187500.02, -187500.02, -187500.02, -187500.02, -187500.02, 0.00, 0.00, 0.00
111, -187500.02, -187500.02, 5584.49, -187500.02, -187500.02, -187500.02, -187500.02, -187500.02, 0.00, 0.00, 0.00
112, -187500.02, -187500.02, 5593.86, -187500.02, -187500.02, -187500.02, -187500.02, -187500.02, 0.00, 0.00, 0.00
113, -187500.02, -187500.02, 5614.51, -187500.02, -187500.02, -187500.02, -187500.02, -187500.02, 0.00, 0.00, 0.00
114, -187500.02, -187500.02, 5600.74, -187500.02, -187500.02, -187500.02, -187500.02, -187500.02, -0.01, 0.00, 1.03
115, -187500.02, -187500.02, 5579.13, -187500.02, -187500.02, -187500.02, -187500.02, -187500.02, 0.00, 0.00, 0.00
116, -187500.02, -187500.02, 5588.61, -187500.02, -187500.02, -187500.02, -187500.02, -187500.02, 0.00, 0.00, 0.00
117, -187500.02, -187500.02, 5612.57, -187500.02, -187500.02, -187500.02, -187500.02, -187500.02, 0.00, 0.00, 0.00
118, -187500.02, -187500.02, 5608.12, -187500.02, -187500.02, -187500.02, -187500.02, -187500.02, 0.00, 0.00, 0.00
119, -187500.02, -187500.02, 5586.06, -187500.02, -187500.02, -187500.02, -187500.02, -187500.02, 0.00, 0.00, 0.00
120, -187500.02, -187500.02, 5579.84, -187500.02, -187500.02, -187500.02, -187500.02, -187500.02, 0.00, 0.00, 0.00
121, -187500.02, -187500.02, 5612.10, -187500.02, -187500.02, -187500.02, -187500.02, -187500.02, 0.00, 0.00, 0.00
122, -187500.02, -187500.02, 5612.93, -187500.02, -187500.02, -187500.02, -187500.02, -187500.02, 0.00, 0.00, 0.00
123, -187500.02, -187500.02, 5596.68, -187500.02, -187500.02, -187500.02, -187500.02, -187500.02, 0.00, 0.00, 0.00
124, -187500.02, -187500.02, 5579.33, -187500.02, -187500.02, -187500.02, -187500.02, -187500.02, 0.00, 0.00, 0.00
125, -187500.02, -187500.02, 5603.90, -187500.02, -187500.02, -187500.02, -187500.02, -187500.02, -0.01, 0.00, 1.03
126, -187500.02, -187500.02, 5607.31, -187500.02, -187500.02, -187500.02, -187500.02, -187500.02, 0.00, 0.00, 0.00
127, -187500.02, -187500.02, 5597.50, -187500.02, -187500.02, -187500.02, -187500.02, -187500.02, 0.00, 0.00, 0.00
128, -187500.02, -187500.02, 5579.96, -187500.02, -187500.02, -187500.02, -187500.02, -187500.02, 0.00, 0.00, 0.00
129, -187500.02, -187500.02, 5601.08, -187500.02, -187500.02, -187500.02, -187500.02, -187500.02, 0.00, 0.00, 0.00
130, -187500.02, -187500.02, 5615.12, -187500.02, -187500.02, -187500.02, -187500.02, -187500.02, 0.00, 0.00, 0.00
131, -187500.02, -187500.02, 5602.64, -187500.02, -187500.02, -187500.02, -187500.02, -187500.02, 0.00, 0.00, 0.00
132, -187500.02, -187500.02, 5580.74, -187500.02, -187500.02, -187500.02, -187500.02, -187500.02, 0.00, 0.00, 0.00
133, -187500.02, -187500.02, 5594.42, -187500.02, -187500.02, -187500.02, -187500.02, -187500.02, 0.00, 0.00, 0.00
134, -187500.02, -187500.02, 5612.12, -187500.02, -187500.02, -187500.02, -187500.02, -187500.02, 0.00, 0.00, 0.00
135, -187500.02, -187500.02, 5601.73, -187500.02, -187500.02, -187500.02, -187500.02, -187500.02, -0.01, 0.00, 1.04
136, -187500.02, -187500.02, 5581.21, -187500.02, -187500.02, -187500.02, -187500.02, -187500.02, 0.00, 0.00, 0.00
137, -187500.02, -187500.02, 5592.29, -187500.02, -187500.02, -187500.02, -187500.02, -187500.02, 0.00, 0.00, 0.00
138, -187500.02, -187500.02, 5614.83, -187500.02, -187500.02, -187500.02, -187500.02, -187500.02, 0.00, 0.00, 0.00
139, -187500.02, -187500.02, 5603.02, -187500.02, -187500.02, -187500.02, -187500.02, -187500.02, 0.00, 0.00, 0.00
140, -187500.02, -187500.02, 5576.92, -187500.02, -187500.02, -187500.02, -187500.02, -187500.02, 0.00, 0.00, 0.00
141, -187500.02, -187500.02, 5585.16, -187500.02, -187500.02, -187500.02, -187500.02, -187500.02, 0.00, 0.00, 0.00
142, -187500.02, -187500.02, 5611.83, -187500.02, -187500.02, -187500.02, -187500.02, -187500.02, 0.00, 0.00, 0.00
143, -187500.02, -187500.02, 5603.72, -187500.02, -187500.02, -187500.02, -187500.02, -187500.02, 0.00, 0.00, 0.00
144, -187500.02, -187500.02, 5586.89, -187500.02, -187500.02, -187500.02, -187500.02, -187500.02, 0.00, 0.00, 0.00
145, -187500.02, -187500.02, 5582.73, -187500.02, -187500.02, -187500.02, -187500.02, -187500.02, -0.01, -0.00, 1.03
146, -187500.02, -187500.02, 5606.31, -187500.02, -187500.02, -187500.02, -187500.02, -187500.02, 0.00, 0.00, 0.00
147, -187500.02, -187500.02, 5608.59, -187500.02, -187500.02, -187500.02, -187500.02, -187500.02, 0.00, 0.00, 0.00
148, -187500.02, -187500.02, 5590.46, -187500.02, -187500.02, -187500.02, -187500.02, -187500.02, 0.00, 0.00, 0.00
149, -187500.02, -187500.02, 5569.88, -187500.02, -187500.02, -187500.02, -187500.02, -187500.02, 0.00, 0.00, 0.00
150, -187500.02, -187500.02, 5605.57, -187500.02, -187500.02, -187500.02, -187500.02, -187500.02, 0.00, 0.00, 0.00
151, -187500.02, -187500.02, 5614.18, -187500.02, -187500.02, -187500.02, -187500.02, -187500.02, 0.00, 0.00, 0.00
152, -187500.02, -187500.02, 5600.10, -187500.02, -187500.02, -187500.02, -187500.02, -187500.02, 0.00, 0.00, 0.00
153, -187500.02, -187500.02, 5577.68, -187500.02, -187500.02, -187500.02, -187500.02, -187500.02, 0.00, 0.00, 0.00
154, -187500.02, -187500.02, 5602.49, -187500.02, -187500.02, -187500.02, -187500.02, -187500.02, 0.00, 0.00, 0.00
155, -187500.02, -187500.02, 5614.45, -187500.02, -187500.02, -187500.02, -187500.02, -187500.02, -0.01, -0.00, 1.03
156, -187500.02, -187500.02, 5600.72, -187500.02, -187500.02, -187500.02, -187500.02, -187500.02, 0.00, 0.00, 0.00
157, -187500.02, -187500.02, 5581.25, -187500.02, -187500.02, -187500.02, -187500.02, -187500.02, 0.00, 0.00, 0.00
158, -187500.02, -187500.02, 5595.18, -187500.02, -187500.02, -187500.02, -187500.02, -187500.02, 0.00, 0.00, 0.00
159, -187500.02, -187500.02, 5613.71, -187500.02, -187500.02, -187500.02, -187500.02, -187500.02, 0.00, 0.00, 0.00
160, -187500.02, -187500.02, 5598.98, -187500.02, -187500.02, -187500.02, -187500.02, -187500.02, 0.00, 0.00, 0.00
161, -187500.02, -187500.02, 5579.58, -187500.02, -187500.02, -187500.02, -187500.02, -187500.02, 0.00, 0.00, 0.00
162, -187500.02, -187500.02, 5587.04, -187500.02, -187500.02, -187500.02, -187500.02, -187500.02, 0.00, 0.00, 0.00
163, -187500.02, -187500.02, 5610.04, -187500.02, -187500.02, -187500.02, -187500.02, -187500.02, 0.00, 0.00, 0.00
164, -187500.02, -187500.02, 5598.49, -187500.02, -187500.02, -187500.02, -187500.02, -187500.02, 0.00, 0.00, 0.00
165, -187500.02, -187500.02, 5584.09, -187500.02, -187500.02, -187500.02, -187500.02, -187500.02, -0.01, -0.00, 1.04
166, -187500.02, -187500.02, 5583.87, -187500.02, -187500.02, -187500.02, -187500.02, -187500.02, 0.00, 0.00, 0.00
167, -187500.02, -187500.02, 5611.65, -187500.02, -187500.02, -187500.02, -187500.02, -187500.02, 0.00, 0.00, 0.00
168, -187500.02, -187500.02, 5612.41, -187500.02, -187500.02, -187500.02, -187500.02, -187500.02, 0.00, 0.00, 0.00
169, -187500.02, -187500.02, 5588.63, -187500.02, -187500.02, -187500.02, -187500.02, -187500.02, 0.00, 0.00, 0.00
170, -187500.02, -187500.02, 5579.71, -187500.02, -187500.02, -187500.02, -187500.02, -187500.02, 0.00, 0.00, 0.00
171, -187500.02, -187500.02, 5605.17, -187500.02, -187500.02, -187500.02, -187500.02, -187500.02, 0.00, 0.00, 0.00
172, -187500.02, -187500.02, 5607.65, -187500.02, -187500.02, -187500.02, -187500.02, -187500.02, 0.00, 0.00, 0.00
173, -187500.02, -187500.02, 5590.53, -187500.02, -187500.02, -187500.02, -187500.02, -187500.02, 0.00, 0.00, 0.00
174, -187500.02, -187500.02, 5575.06, -187500.02, -187500.02, -187500.02, -187500.02, -187500.02, 0.00, 0.00, 0.00
175, -187500.02, -187500.02, 5590.77, -187500.02, -187500.02, -187500.02, -187500.02, -187500.02, -0.01, -0.01, 1.03
176, -187500.02, -187500.02, 5601.70, -187500.02, -187500.02, -187500.02, -187500.02, -187500.02, 0.00, 0.00, 0.00
177, -187500.02, -187500.02, 5599.63, -187500.02, -187500.02, -187500.02, -187500.02, -187500.02, 0.00, 0.00, 0.00
178, -187500.02, -187500.02, 5580.54, -187500.02, -187500.02, -187500.02, -187500.02, -187500.02, 0.00, 0.00, 0.00
179, -187500.02, -187500.02, 5595.71, -187500.02, -187500.02, -187500.02, -187500.02, -187500.02, 0.00, 0.00, 0.00
180, -187500.02, -187500.02, 5612.93, -187500.02, -187500.02, -187500.02, -187500.02, -187500.02, 0.00, 0.00, 0.00
181, -187500.02, -187500.02, 5596.59, -187500.02, -187500.02, -187500.02, -187500.02, -187500.02, 0.00, 0.00, 0.00
182, -187500.02, -187500.02, 5579.80, -187500.02, -187500.02, -187500.02, -187500.02, -187500.02, 0.00, 0.00, 0.00
183, -187500.02, -187500.02, 5586.28, -187500.02, -187500.02, -187500.02, -187500.02, -187500.02, 0.00, 0.00, 0.00
184, -187500.02, -187500.02, 5610.35, -187500.02, -187500.02, -187500.02, -187500.02, -187500.02, 0.00, 0.00, 0.00
185, -187500.02, -187500.02, 5596.70, -187500.02, -187500.02, -187500.02, -187500.02, -187500.02, -0.01, 0.00, 1.03
186, -187500.02, -187500.02, 5576.89, -187500.02, -187500.02, -187500.02, -187500.02, -187500.02, 0.00, 0.00, 0.00
187, -187500.02, -187500.02, 5584.67, -187500.02, -187500.02, -187500.02, -187500.02, -187500.02, 0.00, 0.00, 0.00
188, -187500.02, -187500.02, 5610.71, -187500.02, -187500.02, -187500.02, -187500.02, -187500.02, 0.00, 0.00, 0.00
189, -187500.02, -187500.02, 5604.32, -187500.02, -187500.02, -187500.02, -187500.02, -187500.02, 0.00, 0.00, 0.00
190, -187500.02, -187500.02, 5585.66, -187500.02, -187500.02, -187500.02, -187500.02, -187500.02, 0.00, 0.00, 0.00
191, -187500.02, -187500.02, 5577.10, -187500.02, -187500.02, -187500.02, -187500.02, -187500.02, 0.00, 0.00, 0.00
192, -187500.02, -187500.02, 5605.75, -187500.02, -187500.02, -187500.02, -187500.02, -187500.02, 0.00, 0.00, 0.00
193, -187500.02, -187500.02, 5604.90, -187500.02, -187500.02, -187500.02, -187500.02, -187500.02, 0.00, 0.00, 0.00
194, -187500.02, -187500.02, 5590.01, -187500.02, -187500.02, -187500.02, -187500.02, -187500.02, 0.00, 0.00, 0.00
195, -187500.02, -187500.02, 5572.40, -187500.02, -187500.02, -187500.02, -187500.02, -187500.02, 0.00, 0.00, 0.00
196, -187500.02, -187500.02, 5599.96, -187500.02, -187500.02, -187500.02, -187500.02, -187500.02, -0.01, -0.00, 1.03
197, -187500.02, -187500.02, 5608.28, -187500.02, -187500.02, -187500.02, -187500.02, -187500.02, 0.00, 0.00, 0.00
198, -187500.02, -187500.02, 5589.57, -187500.02, -187500.02, -187500.02, -187500.02, -187500.02, 0.00, 0.00, 0.00
199, -187500.02, -187500.02, 5575.82, -187500.02, -187500.02, -187500.02, -187500.02, -187500.02, 0.00, 0.00, 0.00
200, -187500.02, -187500.02, 5596.97, -187500.02, -187500.02, -187500.02, -187500.02, -187500.02, 0.00, 0.00, 0.00
201, -187500.02, -187500.02, 5603.49, -187500.02, -187500.02, -187500.02, -187500.02, -187500.02, 0.00, 0.00, 0.00
202, -187500.02, -187500.02, 5594.08, -187500.02, -187500.02, -187500.02, -187500.02, -187500.02, 0.00, 0.00, 0.00
203, -187500.02, -187500.02, 5567.01, -187500.02, -187500.02, -187500.02, -187500.02, -187500.02, 0.00, 0.00, 0.00
204, -187500.02, -187500.02, 5586.80, -187500.02, -187500.02, -187500.02, -187500.02, -187500.02, 0.00, 0.00, 0.00
205, -187500.02, -187500.02, 5610.65, -187500.02, -187500.02, -187500.02, -187500.02, -187500.02, 0.00, 0.00, 0.00
206, -187500.02, -187500.02, 5593.01, -187500.02, -187500.02, -187500.02, -187500.02, -187500.02, -0.01, -0.00, 1.03
207, -187500.02, -187500.02, 5573.34, -187500.02, -187500.02, -187500.02, -187500.02, -187500.02, 0.00, 0.00, 0.00
208, -187500.02, -187500.02, 5579.60, -187500.02, -187500.02, -187500.02, -187500.02, -187500.02, 0.00, 0.00, 0.00
209, -187500.02, -187500.02, 5602.82, -187500.02, -187500.02, -187500.02, -187500.02, -187500.02, 0.00, 0.00, 0.00
210, -187500.02, -187500.02, 5592.18, -187500.02, -187500.02, -187500.02, -187500.02, -187500.02, 0.00, 0.00, 0.00
211, -187500.02, -187500.02, 5575.84, -187500.02, -187500.02, -187500.02, -187500.02, -187500.02, 0.00, 0.00, 0.00
212, -187500.02, -187500.02, 5574.70, -187500.02, -187500.02, -187500.02, -187500.02, -187500.02, 0.00, 0.00, 0.00
213, -187500.02, -187500.02, 5600.99, -187500.02, -187500.02, -187500.02, -187500.02, -187500.02, 0.00, 0.00, 0.00
214, -187500.02, -187500.02, 5601.08, -187500.02, -187500.02, -187500.02, -187500.02, -187500.02, 0.00, 0.00, 0.00
215, -187500.02, -187500.02, 5579.08, -187500.02, -187500.02, -187500.02, -187500.02, -187500.02, 0.00, 0.00, 0.00
216, -187500.02, -187500.02, 5570.90, -187500.02, -187500.02, -187500.02, -187500.02, -187500.02, -0.01, 0.00, 1.03
217, -187500.02, -187500.02, 5597.84, -187500.02, -187500.02, -187500.02, -187500.02, -187500.02, 0.00, 0.00, 0.00
218, -187500.02, -187500.02, 5603.16, -187500.02, -187500.02, -187500.02, -187500.02, -187500.02, 0.00, 0.00, 0.00
219, -187500.02, -187500.02, 5582.53, -187500.02, -187500.02, -187500.02, -187500.02, -187500.02, 0.00, 0.00, 0.00
220, -187500.02, -187500.02, 5574.17, -187500.02, -187500.02, -187500.02, -187500.02, -187500.02, 0.00, 0.00, 0.00
221, -187500.02, -187500.02, 5597.86, -187500.02, -187500.02, -187500.02, -187500.02, -187500.02, 0.00, 0.00, 0.00
222, -187500.02, -187500.02, 5604.23, -187500.02, -187500.02, -187500.02, -187500.02, -187500.02, 0.00, 0.00, 0.00
223, -187500.02, -187500.02, 5585.12, -187500.02, -187500.02, -187500.02, -187500.02, -187500.02, 0.00, 0.00, 0.00
224, -187500.02, -187500.02, 5576.49, -187500.02, -187500.02, -187500.02, -187500.02, -187500.02, 0.00, 0.00, 0.00
225, -187500.02, -187500.02, 5593.46, -187500.02, -187500.02, -187500.02, -187500.02, -187500.02, 0.00, 0.00, 0.00
226, -187500.02, -187500.02, 5609.35, -187500.02, -187500.02, -187500.02, -187500.02, -187500.02, -0.01, 0.00, 1.03
227, -187500.02, -187500.02, 5598.98, -187500.02, -187500.02, -187500.02, -187500.02, -187500.02, 0.00, 0.00, 0.00
228, -187500.02, -187500.02, 5578.57, -187500.02, -187500.02, -187500.02, -187500.02, -187500.02, 0.00, 0.00, 0.00
229, -187500.02, -187500.02, 5590.37, -187500.02, -187500.02, -187500.02, -187500.02, -187500.02, 0.00, 0.00, 0.00
230, -187500.02, -187500.02, 5605.39, -187500.02, -187500.02, -187500.02, -187500.02, -187500.02, 0.00, 0.00, 0.00
231, -187500.02, -187500.02, 5593.84, -187500.02, -187500.02, -187500.02, -187500.02, -187500.02, 0.00, 0.00, 0.00
232, -187500.02, -187500.02, 5580.81, -187500.02, -187500.02, -187500.02, -187500.02, -187500.02, 0.00, 0.00, 0.00
233, -187500.02, -187500.02, 5583.13, -187500.02, -187500.02, -187500.02, -187500.02, -187500.02, 0.00, 0.00, 0.00
234, -187500.02, -187500.02, 5606.89, -187500.02, -187500.02, -187500.02, -187500.02, -187500.02, 0.00, 0.00, 0.00
235, -187500.02, -187500.02, 5597.64, -187500.02, -187500.02, -187500.02, -187500.02, -187500.02, 0.00, 0.00, 0.00
236, -187500.02, -187500.02, 5576.02, -187500.02, -187500.02, -187500.02, -187500.02, -187500.02, -0.01, -0.00, 1.04
237, -187500.02, -187500.02, 5580.56, -187500.02, -187500.02, -187500.02, -187500.02, -187500.02, 0.00, 0.00, 0.00
238, -187500.02, -187500.02, 5609.75, -187500.02, -187500.02, -187500.02, -187500.02, -187500.02, 0.00, 0.00, 0.00
239, -187500.02, -187500.02, 5609.46, -187500.02, -187500.02, -187500.02, -187500.02, -187500.02, 0.00, 0.00, 0.00
240, -187500.02, -187500.02, 5588.18, -187500.02, -187500.02, -187500.02, -187500.02, -187500.02, 0.00, 0.00, 0.00
241, -187500.02, -187500.02, 5580.87, -187500.02, -187500.02, -187500.02, -187500.02, -187500.02, 0.00, 0.00, 0.00
242, -187500.02, -187500.02, 5609.95, -187500.02, -187500.02, -187500.02, -187500.02, -187500.02, 0.00, 0.00, 0.00
243, -187500.02, -187500.02, 5607.14, -187500.02, -187500.02, -187500.02, -187500.02, -187500.02, 0.00, 0.00, 0.00
244, -187500.02, -187500.02, 5587.24, -187500.02, -187500.02, -187500.02, -187500.02, -187500.02, 0.00, 0.00, 0.00
245, -187500.02, -187500.02, 5583.56, -187500.02, -187500.02, -187500.02, -187500.02, -187500.02, 0.00, 0.00, 0.00
246, -187500.02, -187500.02, 5605.28, -187500.02, -187500.02, -187500.02, -187500.02, -187500.02, -0.01, -0.00, 1.03
247, -187500.02, -187500.02, 5614.80, -187500.02, -187500.02, -187500.02, -187500.02, -187500.02, 0.00, 0.00, 0.00
248, -187500.02, -187500.02, 5597.50, -187500.02, -187500.02, -187500.02, -187500.02, -187500.02, 0.00, 0.00, 0.00
249, -187500.02, -187500.02, 5580.05, -187500.02, -187500.02, -187500.02, -187500.02, -187500.02, 0.00, 0.00, 0.00
250, -187500.02, -187500.02, 5599.02, -187500.02, -187500.02, -187500.02, -187500.02, -187500.02, 0.00, 0.00, 0.00
251, -187500.02, -187500.02, 5616.01, -187500.02, -187500.02, -187500.02, -187500.02, -187500.02, 0.00, 0.00, 0.00
252, -187500.02, -187500.02, 5606.00, -187500.02, -187500.02, -187500.02, -187500.02, -187500.02, 0.00, 0.00, 0.00
253, -187500.02, -187500.02, 5581.97, -187500.02, -187500.02, -187500.02, -187500.02, -187500.02, 0.00, 0.00, 0.00
254, -187500.02, -187500.02, 5593.26, -187500.02, -187500.02, -187500.02, -187500.02, -187500.02, 0.00, 0.00, 0.00
255, -187500.02, -187500.02, 5610.06, -187500.02, -187500.02, -187500.02, -187500.02, -187500.02, 0.00, 0.00, 0.00
0, -187500.02, -187500.02, 5603.67, -187500.02, -187500.02, -187500.02, -187500.02, -187500.02, 0.00, 0.00, 0.00
1, -187500.02, -187500.02, 5586.84, -187500.02, -187500.02, -187500.02, -187500.02, -187500.02, -0.01, -0.00, 1.03
2, -187500.02, -187500.02, 5588.25, -187500.02, -187500.02, -187500.02, -187500.02, -187500.02, 0.00, 0.00, 0.00
3, -187500.02, -187500.02, 5608.14, -187500.02, -187500.02, -187500.02, -187500.02, -187500.02, 0.00, 0.00, 0.00
4, -187500.02, -187500.02, 5604.05, -187500.02, -187500.02, -187500.02, -187500.02, -187500.02, 0.00, 0.00, 0.00
5, -187500.02, -187500.02, 5590.17, -187500.02, -187500.02, -187500.02, -187500.02, -187500.02, 0.00, 0.00, 0.00
6, -187500.02, -187500.02, 5588.76, -187500.02, -187500.02, -187500.02, -187500.02, -187500.02, 0.00, 0.00, 0.00
7, -187500.02, -187500.02, 5615.56, -187500.02, -187500.02, -187500.02, -187500.02, -187500.02, 0.00, 0.00, 0.00
8, -187500.02, -187500.02, 5614.27, -187500.02, -187500.02, -187500.02, -187500.02, -187500.02, 0.00, 0.00, 0.00
9, -187500.02, -187500.02, 5590.71, -187500.02, -187500.02, -187500.02, -187500.02, -187500.02, 0.00, 0.00, 0.00
10, -187500.02, -187500.02, 5584.83, -187500.02, -187500.02, -187500.02, -187500.02, -187500.02, 0.00, 0.00, 0.00
11, -187500.02, -187500.02, 5603.27, -187500.02, -187500.02, -187500.02, -187500.02, -187500.02, -0.01, -0.00, 1.03
12, -187500.02, -187500.02, 5614.69, -187500.02, -187500.02, -187500.02, -187500.02, -187500.02, 0.00, 0.00, 0.00
13, -187500.02, -187500.02, 5596.30, -187500.02, -187500.02, -187500.02, -187500.02, -187500.02, 0.00, 0.00, 0.00
14, -187500.02, -187500.02, 5580.69, -187500.02, -187500.02, -187500.02, -187500.02, -187500.02, 0.00, 0.00, 0.00
15, -187500.02, -187500.02, 5601.84, -187500.02, -187500.02, -187500.02, -187500.02, -187500.02, 0.00, 0.00, 0.00
16, -187500.02, -187500.02, 5615.34, -187500.02, -187500.02, -187500.02, -187500.02, -187500.02, 0.00, 0.00, 0.00
17, -187500.02, -187500.02, 5600.77, -187500.02, -187500.02, -187500.02, -187500.02, -187500.02, 0.00, 0.00, 0.00
18, -187500.02, -187500.02, 5583.06, -187500.02, -187500.02, -187500.02, -187500.02, -187500.02, 0.00, 0.00, 0.00
19, -187500.02, -187500.02, 5600.79, -187500.02, -187500.02, -187500.02, -187500.02, -187500.02, 0.00, 0.00, 0.00
20, -187500.02, -187500.02, 5616.46, -187500.02, -187500.02, -187500.02, -187500.02, -187500.02, 0.00, 0.00, 0.00
21, -187500.02, -187500.02, 5605.26, -187500.02, -187500.02, -187500.02, -187500.02, -187500.02, -0.01, -0.01, 1.03
22, -187500.02, -187500.02, 5579.69, -187500.02, -187500.02, -187500.02, -187500.02, -187500.02, 0.00, 0.00, 0.00
23, -187500.02, -187500.02, 5593.55, -187500.02, -187500.02, -187500.02, -187500.02, -187500.02, 0.00, 0.00, 0.00
24, -187500.02, -187500.02, 5614.49, -187500.02, -187500.02, -187500.02, -187500.02, -187500.02, 0.00, 0.00, 0.00
25, -187500.02, -187500.02, 5602.44, -187500.02, -187500.02, -187500.02, -187500.02, -187500.02, 0.00, 0.00, 0.00
26, -187500.02, -187500.02, 5587.09, -187500.02, -187500.02, -187500.02, -187500.02, -187500.02, 0.00, 0.00, 0.00
27, -187500.02, -187500.02, 5588.14, -187500.02, -187500.02, -187500.02, -187500.02, -187500.02, 0.00, 0.00, 0.00
28, -187500.02, -187500.02, 5610.44, -187500.02, -187500.02, -187500.02, -187500.02, -187500.02, 0.00, 0.00, 0.00
29, -187500.02, -187500.02, 5609.24, -187500.02, -187500.02, -187500.02, -187500.02, -187500.02, 0.00, 0.00, 0.00
30, -187500.02, -187500.02, 5592.05, -187500.02, -187500.02, -187500.02, -187500.02, -187500.02, 0.00, 0.00, 0.00
31, -187500.02, -187500.02, 5581.48, -187500.02, -187500.02, -187500.02, -187500.02, -187500.02, -0.01, -0.00, 1.03
32, -187500.02, -187500.02, 5604.50, -187500.02, -187500.02, -187500.02, -187500.02, -187500.02, 0.00, 0.00, 0.00
33, -187500.02, -187500.02, 5608.57, -187500.02, -187500.02, -187500.02, -187500.02, -187500.02, 0.00, 0.00, 0.00
34, -187500.02, -187500.02, 5593.50, -187500.02, -187500.02, -187500.02, -187500.02, -187500.02, 0.00, 0.00, 0.00
35, -187500.02, -187500.02, 5583.60, -187500.02, -187500.02, -187500.02, -187500.02, -187500.02, 0.00, 0.00, 0.00
36, -187500.02, -187500.02, 5606.42, -187500.02, -187500.02, -187500.02, -187500.02, -187500.02, 0.00, 0.00, 0.00
37, -187500.02, -187500.02, 5617.31, -187500.02, -187500.02, -187500.02, -187500.02, -187500.02, 0.00, 0.00, 0.00
38, -187500.02, -187500.02, 5599.76, -187500.02, -187500.02, -187500.02, -187500.02, -187500.02, 0.00, 0.00, 0.00
39, -187500.02, -187500.02, 5583.09, -187500.02, -187500.02, -187500.02, -187500.02, -187500.02, 0.00, 0.00, 0.00
40, -187500.02, -187500.02, 5603.45, -187500.02, -187500.02, -187500.02, -187500.02, -187500.02, 0.00, 0.00, 0.00
41, -187500.02, -187500.02, 5613.98, -187500.02, -187500.02, -187500.02, -187500.02, -187500.02, -0.01, -0.01, 1.03
42, -187500.02, -187500.02, 5607.92, -187500.02, -187500.02, -187500.02, -187500.02, -187500.02, 0.00, 0.00, 0.00
43, -187500.02, -187500.02, 5584.31, -187500.02, -187500.02, -187500.02, -187500.02, -187500.02, 0.00, 0.00, 0.00
44, -187500.02, -187500.02, 5588.23, -187500.02, -187500.02, -187500.02, -187500.02, -187500.02, 0.00, 0.00, 0.00
45, -187500.02, -187500.02, 5611.38, -187500.02, -187500.02, -187500.02, -187500.02, -187500.02, 0.00, 0.00, 0.00
46, -187500.02, -187500.02, 5597.28, -187500.02, -187500.02, -187500.02, -187500.02, -187500.02, 0.00, 0.00, 0.00
47, -187500.02, -187500.02, 5580.81, -187500.02, -187500.02, -187500.02, -187500.02, -187500.02, 0.00, 0.00, 0.00
48, -187500.02, -187500.02, 5592.52, -187500.02, -187500.02, -187500.02, -187500.02, -187500.02, 0.00, 0.00, 0.00
49, -187500.02, -187500.02, 5617.13, -187500.02, -187500.02, -187500.02, -187500.02, -187500.02, 0.00, 0.00, 0.00
50, -187500.02, -187500.02, 5605.68, -187500.02, -187500.02, -187500.02, -187500.02, -187500.02, 0.00, 0.00, 0.00
51, -187500.02, -187500.02, 5584.94, -187500.02, -187500.02, -187500.02, -187500.02, -187500.02, -0.01, -0.00, 1.02
52, -187500.02, -187500.02, 5584.76, -187500.02, -187500.02, -187500.02, -187500.02, -187500.02, 0.00, 0.00, 0.00
53, -187500.02, -187500.02, 5611.56, -187500.02, -187500.02, -187500.02, -187500.02, -187500.02, 0.00, 0.00, 0.00
54, -187500.02, -187500.02, 5610.49, -187500.02, -187500.02, -187500.02, -187500.02, -187500.02, 0.00, 0.00, 0.00
55, -187500.02, -187500.02, 5585.01, -187500.02, -187500.02, -187500.02, -187500.02, -187500.02, 0.00, 0.00, 0.00
56, -187500.02, -187500.02, 5580.31, -187500.02, -187500.02, -187500.02, -187500.02, -187500.02, 0.00, 0.00, 0.00
57, -187500.02, -187500.02, 5603.52, -187500.02, -187500.02, -187500.02, -187500.02, -187500.02, 0.00, 0.00, 0.00
58, -187500.02, -187500.02, 5615.00, -187500.02, -187500.02, -187500.02, -187500.02, -187500.02, 0.00, 0.00, 0.00
59, -187500.02, -187500.02, 5597.86, -187500.02, -187500.02, -187500.02, -187500.02, -187500.02, 0.00, 0.00, 0.00
60, -187500.02, -187500.02, 5579.24, -187500.02, -187500.02, -187500.02, -187500.02, -187500.02, 0.00, 0.00, 0.00
61, -187500.02, -187500.02, 5601.44, -187500.02, -187500.02, -187500.02, -187500.02, -187500.02, 0.00, 0.00, 0.00
62, -187500.02, -187500.02, 5612.14, -187500.02, -187500.02, -187500.02, -187500.02, -187500.02, -0.00, -0.01, 1.03
63, -187500.02, -187500.02, 5591.98, -187500.02, -187500.02, -187500.02, -187500.02, -187500.02, 0.00, 0.00, 0.00
64, -187500.02, -187500.02, 5574.28, -187500.02, -187500.02, -187500.02, -187500.02, -187500.02, 0.00, 0.00, 0.00
65, -187500.02, -187500.02, 5596.99, -187500.02, -187500.02, -187500.02, -187500.02, -187500.02, 0.00, 0.00, 0.00
66, -187500.02, -187500.02, 5612.48, -187500.02, -187500.02, -187500.02, -187500.02, -187500.02, 0.00, 0.00, 0.00
67, -187500.02, -187500.02, 5595.74, -187500.02, -187500.02, -187500.02, -187500.02, -187500.02, 0.00, 0.00, 0.00
68, -187500.02, -187500.02, 5576.78, -187500.02, -187500.02, -187500.02, -187500.02, -187500.02, 0.00, 0.00, 0.00
69, -187500.02, -187500.02, 5589.34, -187500.02, -187500.02, -187500.02, -187500.02, -187500.02, 0.00, 0.00, 0.00
70, -187500.02, -187500.02, 5614.31, -187500.02, -187500.02, -187500.02, -187500.02, -187500.02, 0.00, 0.00, 0.00
71, -187500.02, -187500.02, 5603.45, -187500.02, -187500.02, -187500.02, -187500.02, -187500.02, 0.00, 0.00, 0.00
72, -187500.02, -187500.02, 5579.93, -187500.02, -187500.02, -187500.02, -187500.02, -187500.02, -0.00, -0.01, 1.03
73, -187500.02, -187500.02, 5586.89, -187500.02, -187500.02, -187500.02, -187500.02, -187500.02, 0.00, 0.00, 0.00
74, -187500.02, -187500.02, 5612.59, -187500.02, -187500.02, -187500.02, -187500.02, -187500.02, 0.00, 0.00, 0.00
75, -187500.02, -187500.02, 5608.81, -187500.02, -187500.02, -187500.02, -187500.02, -187500.02, 0.00, 0.00, 0.00
76, -187500.02, -187500.02, 5583.47, -187500.02, -187500.02, -187500.02, -187500.02, -187500.02, 0.00, 0.00, 0.00
77, -187500.02, -187500.02, 5577.39, -187500.02, -187500.02, -187500.02, -187500.02, -187500.02, 0.00, 0.00, 0.00
78, -187500.02, -187500.02, 5601.66, -187500.02, -187500.02, -187500.02, -187500.02, -187500.02, 0.00, 0.00, 0.00
79, -187500.02, -187500.02, 5603.96, -187500.02, -187500.02, -187500.02, -187500.02, -187500.02, 0.00, 0.00, 0.00
80, -187500.02, -187500.02, 5584.11, -187500.02, -187500.02, -187500.02, -187500.02, -187500.02, 0.00, 0.00, 0.00
81, -187500.02, -187500.02, 5574.84, -187500.02, -187500.02, -187500.02, -187500.02, -187500.02, 0.00, 0.00, 0.00
82, -187500.02, -187500.02, 5603.09, -187500.02, -187500.02, -187500.02, -187500.02, -187500.02, -0.01, -0.00, 1.03
83, -187500.02, -187500.02, 5611.74, -187500.02, -187500.02, -187500.02, -187500.02, -187500.02, 0.00, 0.00, 0.00
84, -187500.02, -187500.02, 5590.46, -187500.02, -187500.02, -187500.02, -187500.02, -187500.02, 0.00, 0.00, 0.00
85, -187500.02, -187500.02, 5580.31, -187500.02, -187500.02, -187500.02, -187500.02, -187500.02, 0.00, 0.00, 0.00
86, -187500.02, -187500.02, 5600.54, -187500.02, -187500.02, -187500.02, -187500.02, -187500.02, 0.00, 0.00, 0.00
87, -187500.02, -187500.02, 5607.40, -187500.02, -187500.02, -187500.02, -187500.02, -187500.02, 0.00, 0.00, 0.00
88, -187500.02, -187500.02, 5588.45, -187500.02, -187500.02, -187500.02, -187500.02, -187500.02, 0.00, 0.00, 0.00
89, -187500.02, -187500.02, 5570.84, -187500.02, -187500.02, -187500.02, -187500.02, -187500.02, 0.00, 0.00, 0.00
90, -187500.02, -187500.02, 5591.06, -187500.02, -187500.02, -187500.02, -187500.02, -187500.02, 0.00, 0.00, 0.00
91, -187500.02, -187500.02, 5611.70, -187500.02, -187500.02, -187500.02, -187500.02, -187500.02, 0.00, 0.00, 0.00
92, -187500.02, -187500.02, 5600.43, -187500.02, -187500.02, -187500.02, -187500.02, -187500.02, -0.01, -0.00, 1.03
93, -187500.02, -187500.02, 5580.67, -187500.02, -187500.02, -187500.02, -187500.02, -187500.02, 0.00, 0.00, 0.00
94, -187500.02, -187500.02, 5592.83, -187500.02, -187500.02, -187500.02, -187500.02, -187500.02, 0.00, 0.00, 0.00
95, -187500.02, -187500.02, 5608.34, -187500.02, -187500.02, -187500.02, -187500.02, -187500.02, 0.00, 0.00, 0.00
96, -187500.02, -187500.02, 5601.50, -187500.02, -187500.02, -187500.02, -187500.02, -187500.02, 0.00, 0.00, 0.00
97, -187500.02, -187500.02, 5577.63, -187500.02, -187500.02, -187500.02, -187500.02, -187500.02, 0.00, 0.00, 0.00
98, -187500.02, -187500.02, 5581.43, -187500.02, -187500.02, -187500.02, -187500.02, -187500.02, 0.00, 0.00, 0.00
99, -187500.02, -187500.02, 5608.57, -187500.02, -187500.02, -187500.02, -187500.02, -187500.02, 0.00, 0.00, 0.00
100, -187500.02, -187500.02, 5604.43, -187500.02, -187500.02, -187500.02, -187500.02, -187500.02, 0.00, 0.00, 0.00
101, -187500.02, -187500.02, 5583.71, -187500.02, -187500.02, -187500.02, -187500.02, -187500.02, 0.00, 0.00, 0.00
102, -187500.02, -187500.02, 5574.39, -187500.02, -187500.02, -187500.02, -187500.02, -187500.02, -0.01, 0.00, 1.04
103, -187500.02, -187500.02, 5605.73, -187500.02, -187500.02, -187500.02, -187500.02, -187500.02, 0.00, 0.00, 0.00
104, -187500.02, -187500.02, 5605.66, -187500.02, -187500.02, -187500.02, -187500.02, -187500.02, 0.00, 0.00, 0.00
105, -187500.02, -187500.02, 5576.89, -187500.02, -187500.02, -187500.02, -187500.02, -187500.02, 0.00, 0.00, 0.00
106, -187500.02, -187500.02, 5575.26, -187500.02, -187500.02, -187500.02, -187500.02, -187500.02, 0.00, 0.00, 0.00
107, -187500.02, -187500.02, 5596.61, -187500.02, -187500.02, -187500.02, -187500.02, -187500.02, 0.00, 0.00, 0.00
108, -187500.02, -187500.02, 5602.78, -187500.02, -187500.02, -187500.02, -187500.02, -187500.02, 0.00, 0.00, 0.00
109, -187500.02, -187500.02, 5593.43, -187500.02, -187500.02, -187500.02, -187500.02, -187500.02, 0.00, 0.00, 0.00
110, -187500.02, -187500.02, 5574.44, -187500.02, -187500.02, -187500.02, -187500.02, -187500.02, 0.00, 0.00, 0.00
111, -187500.02, -187500.02, 5593.46, -187500.02, -187500.02, -187500.02, -187500.02, -187500.02, 0.00, 0.00, 0.00
112, -187500.02, -187500.02, 5612.63, -187500.02, -187500.02, -187500.02, -187500.02, -187500.02, -0.01, -0.00, 1.03
113, -187500.02, -187500.02, 5594.64, -187500.02, -187500.02, -187500.02, -187500.02, -187500.02, 0.00, 0.00, 0.00
114, -187500.02, -187500.02, 5575.89, -187500.02, -187500.02, -187500.02, -187500.02, -187500.02, 0.00, 0.00, 0.00
115, -187500.02, -187500.02, 5589.90, -187500.02, -187500.02, -187500.02, -187500.02, -187500.02, 0.00, 0.00, 0.00
116, -187500.02, -187500.02, 5604.74, -187500.02, -187500.02, -187500.02, -187500.02, -187500.02, 0.00, 0.00, 0.00
117, -187500.02, -187500.02, 5590.42, -187500.02, -187500.02, -187500.02, -187500.02, -187500.02, 0.00, 0.00, 0.00
118, -187500.02, -187500.02, 5574.55, -187500.02, -187500.02, -187500.02, -187500.02, -187500.02, 0.00, 0.00, 0.00
119, -187500.02, -187500.02, 5582.66, -187500.02, -187500.02, -187500.02, -187500.02, -187500.02, 0.00, 0.00, 0.00
120, -187500.02, -187500.02, 5602.69, -187500.02, -187500.02, -187500.02, -187500.02, -187500.02, 0.00, 0.00, 0.00
121, -187500.02, -187500.02, 5597.26, -187500.02, -187500.02, -187500.02, -187500.02, -187500.02, 0.00, 0.00, 0.00
122, -187500.02, -187500.02, 5585.05, -187500.02, -187500.02, -187500.02, -187500.02, -187500.02, -0.01, -0.00, 1.03
123, -187500.02, -187500.02, 5586.57, -187500.02, -187500.02, -187500.02, -187500.02, -187500.02, 0.00, 0.00, 0.00
124, -187500.02, -187500.02, 5606.91, -187500.02, -187500.02, -187500.02, -187500.02, -187500.02, 0.00, 0.00, 0.00
125, -187500.02, -187500.02, 5603.60, -187500.02, -187500.02, -187500.02, -187500.02, -187500.02, 0.00, 0.00, 0.00
126, -187500.02, -187500.02, 5586.13, -187500.02, -187500.02, -187500.02, -187500.02, -187500.02, 0.00, 0.00, 0.00
127, -187500.02, -187500.02, 5577.43, -187500.02, -187500.02, -187500.02, -187500.02, -187500.02, 0.00, 0.00, 0.00
128, -187500.02, -187500.02, 5602.75, -187500.02, -187500.02, -187500.02, -187500.02, -187500.02, 0.00, 0.00, 0.00
129, -187500.02, -187500.02, 5602.87, -187500.02, -187500.02, -187500.02, -187500.02, -187500.02, 0.00, 0.00, 0.00
130, -187500.02, -187500.02, 5586.48, -187500.02, -187500.02, -187500.02, -187500.02, -187500.02, 0.00, 0.00, 0.00
131, -187500.02, -187500.02, 5568.49, -187500.02, -187500.02, -187500.02, -187500.02, -187500.02, 0.00, 0.00, 0.00
132, -187500.02, -187500.02, 5599.02, -187500.02, -187500.02, -187500.02, -187500.02, -187500.02, 0.00, 0.00, 0.00
133, -187500.02, -187500.02, 5604.77, -187500.02, -187500.02, -187500.02, -187500.02, -187500.02, 0.00, -0.00, 1.03
134, -187500.02, -187500.02, 5581.88, -187500.02, -187500.02, -187500.02, -187500.02, -187500.02, 0.00, 0.00, 0.00
135, -187500.02, -187500.02, 5568.29, -187500.02, -187500.02, -187500.02, -187500.02, -187500.02, 0.00, 0.00, 0.00
136, -187500.02, -187500.02, 5588.14, -187500.02, -187500.02, -187500.02, -187500.02, -187500.02, 0.00, 0.00, 0.00
137, -187500.02, -187500.02, 5605.17, -187500.02, -187500.02, -187500.02, -187500.02, -187500.02, 0.00, 0.00, 0.00
138, -187500.02, -187500.02, 5588.41, -187500.02, -187500.02, -187500.02, -187500.02, -187500.02, 0.00, 0.00, 0.00
139, -187500.02, -187500.02, 5568.96, -187500.02, -187500.02, -187500.02, -187500.02, -187500.02, 0.00, 0.00, 0.00
140, -187500.02, -187500.02, 5585.43, -187500.02, -187500.02, -187500.02, -187500.02, -187500.02, 0.00, 0.00, 0.00
141, -187500.02, -187500.02, 5606.44, -187500.02, -187500.02, -187500.02, -187500.02, -187500.02, 0.00, 0.00, 0.00
142, -187500.02, -187500.02, 5596.12, -187500.02, -187500.02, -187500.02, -187500.02, -187500.02, 0.00, 0.00, 0.00
143, -187500.02, -187500.02, 5580.05, -187500.02, -187500.02, -187500.02, -187500.02, -187500.02, -0.00, -0.00, 1.03
144, -187500.02, -187500.02, 5584.90, -187500.02, -187500.02, -187500.02, -187500.02, -187500.02, 0.00, 0.00, 0.00
145, -187500.02, -187500.02, 5602.38, -187500.02, -187500.02, -187500.02, -187500.02, -187500.02, 0.00, 0.00, 0.00
146, -187500.02, -187500.02, 5604.34, -187500.02, -187500.02, -187500.02, -187500.02, -187500.02, 0.00, 0.00, 0.00
147, -187500.02, -187500.02, 5582.42, -187500.02, -187500.02, -187500.02, -187500.02, -187500.02, 0.00, 0.00, 0.00
148, -187500.02, -187500.02, 5579.20, -187500.02, -187500.02, -187500.02, -187500.02, -187500.02, 0.00, 0.00, 0.00
149, -187500.02, -187500.02, 5600.92, -187500.02, -187500.02, -187500.02, -187500.02, -187500.02, 0.00, 0.00, 0.00
150, -187500.02, -187500.02, 5602.04, -187500.02, -187500.02, -187500.02, -187500.02, -187500.02, 0.00, 0.00, 0.00
151, -187500.02, -187500.02, 5580.36, -187500.02, -187500.02, -187500.02, -187500.02, -187500.02, 0.00, 0.00, 0.00
152, -187500.02, -187500.02, 5572.92, -187500.02, -187500.02, -187500.02, -187500.02, -187500.02, 0.00, 0.00, 0.00
153, -187500.02, -187500.02, 5600.68, -187500.02, -187500.02, -187500.02, -187500.02, -187500.02, -0.01, -0.01, 1.04
154, -187500.02, -187500.02, 5606.53, -187500.02, -187500.02, -187500.02, -187500.02, -187500.02, 0.00, 0.00, 0.00
155, -187500.02, -187500.02, 5586.77, -187500.02, -187500.02, -187500.02, -187500.02, -187500.02, 0.00, 0.00, 0.00
156, -187500.02, -187500.02, 5567.98, -187500.02, -187500.02, -187500.02, -187500.02, -187500.02, 0.00, 0.00, 0.00
157, -187500.02, -187500.02, 5591.56, -187500.02, -187500.02, -187500.02, -187500.02, -187500.02, 0.00, 0.00, 0.00
158, -187500.02, -187500.02, 5615.76, -187500.02, -187500.02, -187500.02, -187500.02, -187500.02, 0.00, 0.00, 0.00
159, -187500.02, -187500.02, 5595.11, -187500.02, -187500.02, -187500.02, -187500.02, -187500.02, 0.00, 0.00, 0.00
160, -187500.02, -187500.02, 5571.53, -187500.02, -187500.02, -187500.02, -187500.02, -187500.02, 0.00, 0.00, 0.00
161, -187500.02, -187500.02, 5590.31, -187500.02, -187500.02, -187500.02, -187500.02, -187500.02, 0.00, 0.00, 0.00
162, -187500.02, -187500.02, 5607.83, -187500.02, -187500.02, -187500.02, -187500.02, -187500.02, 0.00, 0.00, 0.00
163, -187500.02, -187500.02, 5598.11, -187500.02, -187500.02, -187500.02, -187500.02, -187500.02, -0.01, -0.00, 1.03
164, -187500.02, -187500.02, 5572.51, -187500.02, -187500.02, -187500.02, -187500.02, -187500.02, 0.00, 0.00, 0.00
165, -187500.02, -187500.02, 5584.31, -187500.02, -187500.02, -187500.02, -187500.02, -187500.02, 0.00, 0.00, 0.00
166, -187500.02, -187500.02, 5606.73, -187500.02, -187500.02, -187500.02, -187500.02, -187500.02, 0.00, 0.00, 0.00
167, -187500.02, -187500.02, 5600.03, -187500.02, -187500.02, -187500.02, -187500.02, -187500.02, 0.00, 0.00, 0.00
168, -187500.02, -187500.02, 5574.88, -187500.02, -187500.02, -187500.02, -187500.02, -187500.02, 0.00, 0.00, 0.00
169, -187500.02, -187500.02, 5573.27, -187500.02, -187500.02, -187500.02, -187500.02, -187500.02, 0.00, 0.00, 0.00
170, -187500.02, -187500.02, 5602.58, -187500.02, -187500.02, -187500.02, -187500.02, -187500.02, 0.00, 0.00, 0.00
171, -187500.02, -187500.02, 5604.01, -187500.02, -187500.02, -187500.02, -187500.02, -187500.02, 0.00, 0.00, 0.00
172, -187500.02, -187500.02, 5584.20, -187500.02, -187500.02, -187500.02, -187500.02, -187500.02, 0.00, 0.00, 0.00
173, -187500.02, -187500.02, 5577.45, -187500.02, -187500.02, -187500.02, -187500.02, -187500.02, -0.01, -0.00, 1.04
174, -187500.02, -187500.02, 5599.76, -187500.02, -187500.02, -187500.02, -187500.02, -187500.02, 0.00, 0.00, 0.00
175, -187500.02, -187500.02, 5601.86, -187500.02, -187500.02, -187500.02, -187500.02, -187500.02, 0.00, 0.00, 0.00
176, -187500.02, -187500.02, 5582.26, -187500.02, -187500.02, -187500.02, -187500.02, -187500.02, 0.00, 0.00, 0.00
177, -187500.02, -187500.02, 5583.51, -187500.02, -187500.02, -187500.02, -187500.02, -187500.02, 0.00, 0.00, 0.00
178, -187500.02, -187500.02, 5602.55, -187500.02, -187500.02, -187500.02, -187500.02, -187500.02, 0.00, 0.00, 0.00
179, -187500.02, -187500.02, 5604.95, -187500.02, -187500.02, -187500.02, -187500.02, -187500.02, 0.00, 0.00, 0.00
180, -187500.02, -187500.02, 5584.14, -187500.02, -187500.02, -187500.02, -187500.02, -187500.02, 0.00, 0.00, 0.00
181, -187500.02, -187500.02, 5572.96, -187500.02, -187500.02, -187500.02, -187500.02, -187500.02, 0.00, 0.00, 0.00
182, -187500.02, -187500.02, 5596.92, -187500.02, -187500.02, -187500.02, -187500.02, -187500.02, 0.00, 0.00, 0.00
183, -187500.02, -187500.02, 5611.29, -187500.02, -187500.02, -187500.02, -187500.02, -187500.02, -0.01, 0.00, 1.03
184, -187500.02, -187500.02, 5595.36, -187500.02, -187500.02, -187500.02, -187500.02, -187500.02, 0.00, 0.00, 0.00
185, -187500.02, -187500.02, 5569.81, -187500.02, -187500.02, -187500.02, -187500.02, -187500.02, 0.00, 0.00, 0.00
186, -187500.02, -187500.02, 5582.71, -187500.02, -187500.02, -187500.02, -187500.02, -187500.02, 0.00, 0.00, 0.00
187, -187500.02, -187500.02, 5598.80, -187500.02, -187500.02, -187500.02, -187500.02, -187500.02, 0.00, 0.00, 0.00
188, -187500.02, -187500.02, 5591.80, -187500.02, -187500.02, -187500.02, -187500.02, -187500.02, 0.00, 0.00, 0.00
189, -187500.02, -187500.02, 5573.47, -187500.02, -187500.02, -187500.02, -187500.02, -187500.02, 0.00, 0.00, 0.00
190, -187500.02, -187500.02, 5589.37, -187500.02, -187500.02, -187500.02, -187500.02, -187500.02, 0.00, 0.00, 0.00
191, -187500.02, -187500.02, 5601.44, -187500.02, -187500.02, -187500.02, -187500.02, -187500.02, 0.00, 0.00, 0.00
192, -187500.02, -187500.02, 5592.03, -187500.02, -187500.02, -187500.02, -187500.02, -187500.02, 0.00, 0.00, 0.00
193, -187500.02, -187500.02, 5574.82, -187500.02, -187500.02, -187500.02, -187500.02, -187500.02, 0.00, 0.00, 0.00
194, -187500.02, -187500.02, 5576.38, -187500.02, -187500.02, -187500.02, -187500.02, -187500.02, -0.00, -0.00, 1.03
195, -187500.02, -187500.02, 5606.85, -187500.02, -187500.02, -187500.02, -187500.02, -187500.02, 0.00, 0.00, 0.00
196, -187500.02, -187500.02, 5599.58, -187500.02, -187500.02, -187500.02, -187500.02, -187500.02, 0.00, 0.00, 0.00
197, -187500.02, -187500.02, 5583.89, -187500.02, -187500.02, -187500.02, -187500.02, -187500.02, 0.00, 0.00, 0.00
198, -187500.02, -187500.02, 5577.45, -187500.02, -187500.02, -187500.02, -187500.02, -187500.02, 0.00, 0.00, 0.00
199, -187500.02, -187500.02, 5602.15, -187500.02, -187500.02, -187500.02, -187500.02, -187500.02, 0.00, 0.00, 0.00
200, -187500.02, -187500.02, 5603.29, -187500.02, -187500.02, -187500.02, -187500.02, -187500.02, 0.00, 0.00, 0.00
201, -187500.02, -187500.02, 5577.07, -187500.02, -187500.02, -187500.02, -187500.02, -187500.02, 0.00, 0.00, 0.00
202, -187500.02, -187500.02, 5574.39, -187500.02, -187500.02, -187500.02, -187500.02, -187500.02, 0.00, 0.00, 0.00
203, -187500.02, -187500.02, 5600.77, -187500.02, -187500.02, -187500.02, -187500.02, -187500.02, 0.00, 0.00, 0.00
204, -187500.02, -187500.02, 5606.40, -187500.02, -187500.02, -187500.02, -187500.02, -187500.02, -0.01, -0.00, 1.02
205, -187500.02, -187500.02, 5586.91, -187500.02, -187500.02, -187500.02, -187500.02, -187500.02, 0.00, 0.00, 0.00
206, -187500.02, -187500.02, 5574.30, -187500.02, -187500.02, -187500.02, -187500.02, -187500.02, 0.00, 0.00, 0.00
207, -187500.02, -187500.02, 5593.95, -187500.02, -187500.02, -187500.02, -187500.02, -187500.02, 0.00, 0.00, 0.00
208, -187500.02, -187500.02, 5605.62, -187500.02, -187500.02, -187500.02, -187500.02, -187500.02, 0.00, 0.00, 0.00
209, -187500.02, -187500.02, 5591.06, -187500.02, -187500.02, -187500.02, -187500.02, -187500.02, 0.00, 0.00, 0.00
210, -187500.02, -187500.02, 5576.02, -187500.02, -187500.02, -187500.02, -187500.02, -187500.02, 0.00, 0.00, 0.00
211, -187500.02, -187500.02, 5583.09, -187500.02, -187500.02, -187500.02, -187500.02, -187500.02, 0.00, 0.00, 0.00
212, -187500.02, -187500.02, 5601.86, -187500.02, -187500.02, -187500.02, -187500.02, -187500.02, 0.00, 0.00, 0.00
213, -187500.02, -187500.02, 5594.37, -187500.02, -187500.02, -187500.02, -187500.02, -187500.02, 0.00, 0.00, 0.00
214, -187500.02, -187500.02, 5573.59, -187500.02, -187500.02, -187500.02, -187500.02, -187500.02, -0.01, 0.00, 1.02
215, -187500.02, -187500.02, 5582.46, -187500.02, -187500.02, -187500.02, -187500.02, -187500.02, 0.00, 0.00, 0.00
216, -187500.02, -187500.02, 5608.99, -187500.02, -187500.02, -187500.02, -187500.02, -187500.02, 0.00, 0.00, 0.00
217, -187500.02, -187500.02, 5603.34, -187500.02, -187500.02, -187500.02, -187500.02, -187500.02, 0.00, 0.00, 0.00
218, -187500.02, -187500.02, 5580.43, -187500.02, -187500.02, -187500.02, -187500.02, -187500.02, 0.00, 0.00, 0.00
219, -187500.02, -187500.02, 5577.99, -187500.02, -187500.02, -187500.02, -187500.02, -187500.02, 0.00, 0.00, 0.00
220, -187500.02, -187500.02, 5601.82, -187500.02, -187500.02, -187500.02, -187500.02, -187500.02, 0.00, 0.00, 0.00
221, -187500.02, -187500.02, 5594.66, -187500.02, -187500.02, -187500.02, -187500.02, -187500.02, 0.00, 0.00, 0.00
222, -187500.02, -187500.02, 5578.93, -187500.02, -187500.02, -187500.02, -187500.02, -187500.02, 0.00, 0.00, 0.00
223, -187500.02, -187500.02, 5576.76, -187500.02, -187500.02, -187500.02, -187500.02, -187500.02, 0.00, 0.00, 0.00
224, -187500.02, -187500.02, 5602.33, -187500.02, -187500.02, -187500.02, -187500.02, -187500.02, -0.01, 0.00, 1.03
225, -187500.02, -187500.02, 5609.64, -187500.02, -187500.02, -187500.02, -187500.02, -187500.02, 0.00, 0.00, 0.00
226, -187500.02, -187500.02, 5585.46, -187500.02, -187500.02, -187500.02, -187500.02, -187500.02, 0.00, 0.00, 0.00
227, -187500.02, -187500.02, 5572.45, -187500.02, -187500.02, -187500.02, -187500.02, -187500.02, 0.00, 0.00, 0.00
228, -187500.02, -187500.02, 5591.91, -187500.02, -187500.02, -187500.02, -187500.02, -187500.02, 0.00, 0.00, 0.00
229, -187500.02, -187500.02, 5604.50, -187500.02, -187500.02, -187500.02, -187500.02, -187500.02, 0.00, 0.00, 0.00
230, -187500.02, -187500.02, 5595.40, -187500.02, -187500.02, -187500.02, -187500.02, -187500.02, 0.00, 0.00, 0.00
231, -187500.02, -187500.02, 5578.95, -187500.02, -187500.02, -187500.02, -187500.02, -187500.02, 0.00, 0.00, 0.00
232, -187500.02, -187500.02, 5591.31, -187500.02, -187500.02, -187500.02, -187500.02, -187500.02, 0.00, 0.00, 0.00
233, -187500.02, -187500.02, 5609.24, -187500.02, -187500.02, -187500.02, -187500.02, -187500.02, 0.00, 0.00, 0.00
234, -187500.02, -187500.02, 5594.66, -187500.02, -187500.02, -187500.02, -187500.02, -187500.02, -0.01, 0.00, 1.03
235, -187500.02, -187500.02, 5576.11, -187500.02, -187500.02, -187500.02, -187500.02, -187500.02, 0.00, 0.00, 0.00
236, -187500.02, -187500.02, 5588.81, -187500.02, -187500.02, -187500.02, -187500.02, -187500.02, 0.00, 0.00, 0.00
237, -187500.02, -187500.02, 5606.69, -187500.02, -187500.02, -187500.02, -187500.02, -187500.02, 0.00, 0.00, 0.00
238, -187500.02, -187500.02, 5598.33, -187500.02, -187500.02, -187500.02, -187500.02, -187500.02, 0.00, 0.00, 0.00
239, -187500.02, -187500.02, 5572.47, -187500.02, -187500.02, -187500.02, -187500.02, -187500.02, 0.00, 0.00, 0.00
240, -187500.02, -187500.02, 5579.76, -187500.02, -187500.02, -187500.02, -187500.02, -187500.02, 0.00, 0.00, 0.00
241, -187500.02, -187500.02, 5602.78, -187500.02, -187500.02, -187500.02, -187500.02, -187500.02, 0.00, 0.00, 0.00
242, -187500.02, -187500.02, 5592.54, -187500.02, -187500.02, -187500.02, -187500.02, -187500.02, 0.00, 0.00, 0.00
243, -187500.02, -187500.02, 5575.69, -187500.02, -187500.02, -187500.02, -187500.02, -187500.02, 0.00, 0.00, 0.00
244, -187500.02, -187500.02, 5573.83, -187500.02, -187500.02, -187500.02, -187500.02, -187500.02, -0.01, 0.00, 1.03
245, -187500.02, -187500.02, 5600.70, -187500.02, -187500.02, -187500.02, -187500.02, -187500.02, 0.00, 0.00, 0.00
246, -187500.02, -187500.02, 5599.89, -187500.02, -187500.02, -187500.02, -187500.02, -187500.02, 0.00, 0.00, 0.00
247, -187500.02, -187500.02, 5587.80, -187500.02, -187500.02, -187500.02, -187500.02, -187500.02, 0.00, 0.00, 0.00
248, -187500.02, -187500.02, 5577.50, -187500.02, -187500.02, -187500.02, -187500.02, -187500.02, 0.00, 0.00, 0.00
249, -187500.02, -187500.02, 5599.09, -187500.02, -187500.02, -187500.02, -187500.02, -187500.02, 0.00, 0.00, 0.00
250, -187500.02, -187500.02, 5600.14, -187500.02, -187500.02, -187500.02, -187500.02, -187500.02, 0.00, 0.00, 0.00
251, -187500.02, -187500.02, 5586.06, -187500.02, -187500.02, -187500.02, -187500.02, -187500.02, 0.00, 0.00, 0.00
252, -187500.02, -187500.02, 5572.94, -187500.02, -187500.02, -187500.02, -187500.02, -187500.02, 0.00, 0.00, 0.00
253, -187500.02, -187500.02, 5592.83, -187500.02, -187500.02, -187500.02, -187500.02, -187500.02, 0.00, 0.00, 0.00
254, -187500.02, -187500.02, 5605.48, -187500.02, -187500.02, -187500.02, -187500.02, -187500.02, 0.00, 0.00, 0.00
255, -187500.02, -187500.02, 5592.65, -187500.02, -187500.02, -187500.02, -187500.02, -187500.02, -0.01, -0.01, 1.04
0, -187500.02, -187500.02, 5576.25, -187500.02, -187500.02, -187500.02, -187500.02, -187500.02, 0.00, 0.00, 0.00
1, -187500.02, -187500.02, 5595.25, -187500.02, -187500.02, -187500.02, -187500.02, -187500.02, 0.00, 0.00, 0.00
2, -187500.02, -187500.02, 5606.62, -187500.02, -187500.02, -187500.02, -187500.02, -187500.02, 0.00, 0.00, 0.00
3, -187500.02, -187500.02, 5593.48, -187500.02, -187500.02, -187500.02, -187500.02, -187500.02, 0.00, 0.00, 0.00
4, -187500.02, -187500.02, 5576.60, -187500.02, -187500.02, -187500.02, -187500.02, -187500.02, 0.00, 0.00, 0.00
5, -187500.02, -187500.02, 5584.72, -187500.02, -187500.02, -187500.02, -187500.02, -187500.02, 0.00, 0.00, 0.00
6, -187500.02, -187500.02, 5607.83, -187500.02, -187500.02, -187500.02, -187500.02, -187500.02, 0.00, 0.00, 0.00
7, -187500.02, -187500.02, 5598.51, -187500.02, -187500.02, -187500.02, -187500.02, -187500.02, 0.00, 0.00, 0.00
8, -187500.02, -187500.02, 5576.22, -187500.02, -187500.02, -187500.02, -187500.02, -187500.02, 0.00, 0.00, 0.00
9, -187500.02, -187500.02, 5574.88, -187500.02, -187500.02, -187500.02, -187500.02, -187500.02, -0.01, 0.00, 1.04
10, -187500.02, -187500.02, 5601.79, -187500.02, -187500.02, -187500.02, -187500.02, -187500.02, 0.00, 0.00, 0.00
11, -187500.02, -187500.02, 5599.87, -187500.02, -187500.02, -187500.02, -187500.02, -187500.02, 0.00, 0.00, 0.00
12, -187500.02, -187500.02, 5576.51, -187500.02, -187500.02, -187500.02, -187500.02, -187500.02, 0.00, 0.00, 0.00
13, -187500.02, -187500.02, 5569.18, -187500.02, -187500.02, -187500.02, -187500.02, -187500.02, 0.00, 0.00, 0.00
14, -187500.02, -187500.02, 5594.48, -187500.02, -187500.02, -187500.02, -187500.02, -187500.02, 0.00, 0.00, 0.00
15, -187500.02, -187500.02, 5607.27, -187500.02, -187500.02, -187500.02, -187500.02, -187500.02, 0.00, 0.00, 0.00
16, -187500.02, -187500.02, 5580.09, -187500.02, -187500.02, -187500.02, -187500.02, -187500.02, 0.00, 0.00, 0.00
17, -187500.02, -187500.02, 5570.41, -187500.02, -187500.02, -187500.02, -187500.02, -187500.02, 0.00, 0.00, 0.00
18, -187500.02, -187500.02, 5596.23, -187500.02, -187500.02, -187500.02, -187500.02, -187500.02, 0.00, 0.00, 0.00
19, -187500.02, -187500.02, 5603.78, -187500.02, -187500.02, -187500.02, -187500.02, -187500.02, -0.01, 0.00, 1.03
