%OpenBCI Raw EEG Data
%
%Sample Rate = 250.0 Hz
%First Column = SampleIndex
%Other Columns = EEG data in microvolts followed by Accel Data (in G) interleaved with Aux Data
0, -187500.02, -187500.02, 4445.49, -187500.02, -187500.02, -187500.02, -187500.02, -187500.02, -0.02, 0.00, 1.04
1, -187500.02, -187500.02, 4381.97, -187500.02, -187500.02, -187500.02, -187500.02, -187500.02, 0.00, 0.00, 0.00
2, -187500.02, -187500.02, 4408.35, -187500.02, -187500.02, -187500.02, -187500.02, -187500.02, 0.00, 0.00, 0.00
3, -187500.02, -187500.02, 4437.31, -187500.02, -187500.02, -187500.02, -187500.02, -187500.02, 0.00, 0.00, 0.00
4, -187500.02, -187500.02, 4440.53, -187500.02, -187500.02, -187500.02, -187500.02, -187500.02, 0.00, 0.00, 0.00
5, -187500.02, -187500.02, 4387.33, -187500.02, -187500.02, -187500.02, -187500.02, -187500.02, 0.00, 0.00, 0.00
6, -187500.02, -187500.02, 4400.50, -187500.02, -187500.02, -187500.02, -187500.02, -187500.02, 0.00, 0.00, 0.00
7, -187500.02, -187500.02, 4437.20, -187500.02, -187500.02, -187500.02, -187500.02, -187500.02, -0.00, -0.00, 1.03
8, -187500.02, -187500.02, 4451.82, -187500.02, -187500.02, -187500.02, -187500.02, -187500.02, 0.00, 0.00, 0.00
9, -187500.02, -187500.02, 4407.18, -187500.02, -187500.02, -187500.02, -187500.02, -187500.02, 0.00, 0.00, 0.00
10, -187500.02, -187500.02, 4381.14, -187500.02, -187500.02, -187500.02, -187500.02, -187500.02, 0.00, 0.00, 0.00
11, -187500.02, -187500.02, 4422.63, -187500.02, -187500.02, -187500.02, -187500.02, -187500.02, 0.00, 0.00, 0.00
12, -187500.02, -187500.02, 4449.90, -187500.02, -187500.02, -187500.02, -187500.02, -187500.02, 0.00, 0.00, 0.00
13, -187500.02, -187500.02, 4424.84, -187500.02, -187500.02, -187500.02, -187500.02, -187500.02, 0.00, 0.00, 0.00
14, -187500.02, -187500.02, 4380.81, -187500.02, -187500.02, -187500.02, -187500.02, -187500.02, 0.00, 0.00, 0.00
15, -187500.02, -187500.02, 4415.63, -187500.02, -187500.02, -187500.02, -187500.02, -187500.02, 0.00, 0.00, 0.00
16, -187500.02, -187500.02, 4447.42, -187500.02, -187500.02, -187500.02, -187500.02, -187500.02, 0.00, 0.00, 0.00
17, -187500.02, -187500.02, 4422.02, -187500.02, -187500.02, -187500.02, -187500.02, -187500.02, -0.01, -0.00, 1.03
18, -187500.02, -187500.02, 4366.84, -187500.02, -187500.02, -187500.02, -187500.02, -187500.02, 0.00, 0.00, 0.00
19, -187500.02, -187500.02, 4388.14, -187500.02, -187500.02, -187500.02, -187500.02, -187500.02, 0.00, 0.00, 0.00
20, -187500.02, -187500.02, 4428.53, -187500.02, -187500.02, -187500.02, -187500.02, -187500.02, 0.00, 0.00, 0.00
21, -187500.02, -187500.02, 4425.47, -187500.02, -187500.02, -187500.02, -187500.02, -187500.02, 0.00, 0.00, 0.00
22, -187500.02, -187500.02, 4386.95, -187500.02, -187500.02, -187500.02, -187500.02, -187500.02, 0.00, 0.00, 0.00
23, -187500.02, -187500.02, 4379.89, -187500.02, -187500.02, -187500.02, -187500.02, -187500.02, 0.00, 0.00, 0.00
24, -187500.02, -187500.02, 4410.98, -187500.02, -187500.02, -187500.02, -187500.02, -187500.02, 0.00, 0.00, 0.00
25, -187500.02, -187500.02, 4362.88, -187500.02, -187500.02, -187500.02, -187500.02, -187500.02, 0.00, 0.00, 0.00
26, -187500.02, -187500.02, 4382.04, -187500.02, -187500.02, -187500.02, -187500.02, -187500.02, 0.00, 0.00, 0.00
27, -187500.02, -187500.02, 4417.22, -187500.02, -187500.02, -187500.02, -187500.02, -187500.02, -0.01, -0.01, 1.04
28, -187500.02, -187500.02, 4422.52, -187500.02, -187500.02, -187500.02, -187500.02, -187500.02, 0.00, 0.00, 0.00
29, -187500.02, -187500.02, 4400.79, -187500.02, -187500.02, -187500.02, -187500.02, -187500.02, 0.00, 0.00, 0.00
30, -187500.02, -187500.02, 4376.07, -187500.02, -187500.02, -187500.02, -187500.02, -187500.02, 0.00, 0.00, 0.00
31, -187500.02, -187500.02, 4412.97, -187500.02, -187500.02, -187500.02, -187500.02, -187500.02, 0.00, 0.00, 0.00
32, -187500.02, -187500.02, 4438.72, -187500.02, -187500.02, -187500.02, -187500.02, -187500.02, 0.00, 0.00, 0.00
33, -187500.02, -187500.02, 4429.78, -187500.02, -187500.02, -187500.02, -187500.02, -187500.02, 0.00, 0.00, 0.00
34, -187500.02, -187500.02, 4388.30, -187500.02, -187500.02, -187500.02, -187500.02, -187500.02, 0.00, 0.00, 0.00
35, -187500.02, -187500.02, 4364.94, -187500.02, -187500.02, -187500.02, -187500.02, -187500.02, 0.00, 0.00, 0.00
36, -187500.02, -187500.02, 4387.38, -187500.02, -187500.02, -187500.02, -187500.02, -187500.02, 0.00, 0.00, 0.00
37, -187500.02, -187500.02, 4423.97, -187500.02, -187500.02, -187500.02, -187500.02, -187500.02, -0.01, -0.00, 1.04
38, -187500.02, -187500.02, 4392.03, -187500.02, -187500.02, -187500.02, -187500.02, -187500.02, 0.00, 0.00, 0.00
39, -187500.02, -187500.02, 4342.81, -187500.02, -187500.02, -187500.02, -187500.02, -187500.02, 0.00, 0.00, 0.00
40, -187500.02, -187500.02, 4367.91, -187500.02, -187500.02, -187500.02, -187500.02, -187500.02, 0.00, 0.00, 0.00
41, -187500.02, -187500.02, 4410.45, -187500.02, -187500.02, -187500.02, -187500.02, -187500.02, 0.00, 0.00, 0.00
42, -187500.02, -187500.02, 4387.76, -187500.02, -187500.02, -187500.02, -187500.02, -187500.02, 0.00, 0.00, 0.00
43, -187500.02, -187500.02, 4356.53, -187500.02, -187500.02, -187500.02, -187500.02, -187500.02, 0.00, 0.00, 0.00
44, -187500.02, -187500.02, 4354.08, -187500.02, -187500.02, -187500.02, -187500.02, -187500.02, 0.00, 0.00, 0.00
45, -187500.02, -187500.02, 4372.43, -187500.02, -187500.02, -187500.02, -187500.02, -187500.02, 0.00, 0.00, 0.00
46, -187500.02, -187500.02, 4362.26, -187500.02, -187500.02, -187500.02, -187500.02, -187500.02, 0.00, 0.00, 0.00
47, -187500.02, -187500.02, 4320.06, -187500.02, -187500.02, -187500.02, -187500.02, -187500.02, -0.01, -0.00, 1.03
48, -187500.02, -187500.02, 4256.80, -187500.02, -187500.02, -187500.02, -187500.02, -187500.02, 0.00, 0.00, 0.00
49, -187500.02, -187500.02, 4282.26, -187500.02, -187500.02, -187500.02, -187500.02, -187500.02, 0.00, 0.00, 0.00
50, -187500.02, -187500.02, 4433.92, -187500.02, -187500.02, -187500.02, -187500.02, -187500.02, 0.00, 0.00, 0.00
51, -187500.02, -187500.02, 4435.12, -187500.02, -187500.02, -187500.02, -187500.02, -187500.02, 0.00, 0.00, 0.00
52, -187500.02, -187500.02, 4393.37, -187500.02, -187500.02, -187500.02, -187500.02, -187500.02, 0.00, 0.00, 0.00
53, -187500.02, -187500.02, 4387.02, -187500.02, -187500.02, -187500.02, -187500.02, -187500.02, 0.00, 0.00, 0.00
54, -187500.02, -187500.02, 4397.12, -187500.02, -187500.02, -187500.02, -187500.02, -187500.02, 0.00, 0.00, 0.00
55, -187500.02, -187500.02, 4339.21, -187500.02, -187500.02, -187500.02, -187500.02, -187500.02, 0.00, 0.00, 0.00
56, -187500.02, -187500.02, 4237.38, -187500.02, -187500.02, -187500.02, -187500.02, -187500.02, 0.00, 0.00, 0.00
57, -187500.02, -187500.02, 4199.69, -187500.02, -187500.02, -187500.02, -187500.02, -187500.02, 0.00, 0.00, 0.00
58, -187500.02, -187500.02, 4388.43, -187500.02, -187500.02, -187500.02, -187500.02, -187500.02, -0.01, -0.00, 1.03
59, -187500.02, -187500.02, 4399.18, -187500.02, -187500.02, -187500.02, -187500.02, -187500.02, 0.00, 0.00, 0.00
60, -187500.02, -187500.02, 4358.17, -187500.02, -187500.02, -187500.02, -187500.02, -187500.02, 0.00, 0.00, 0.00
61, -187500.02, -187500.02, 4408.84, -187500.02, -187500.02, -187500.02, -187500.02, -187500.02, 0.00, 0.00, 0.00
62, -187500.02, -187500.02, 4437.11, -187500.02, -187500.02, -187500.02, -187500.02, -187500.02, 0.00, 0.00, 0.00
63, -187500.02, -187500.02, 4373.03, -187500.02, -187500.02, -187500.02, -187500.02, -187500.02, 0.00, 0.00, 0.00
64, -187500.02, -187500.02, 4250.56, -187500.02, -187500.02, -187500.02, -187500.02, -187500.02, 0.00, 0.00, 0.00
65, -187500.02, -187500.02, 4103.36, -187500.02, -187500.02, -187500.02, -187500.02, -187500.02, 0.00, 0.00, 0.00
66, -187500.02, -187500.02, 4297.88, -187500.02, -187500.02, -187500.02, -187500.02, -187500.02, 0.00, 0.00, 0.00
67, -187500.02, -187500.02, 4505.69, -187500.02, -187500.02, -187500.02, -187500.02, -187500.02, 0.00, 0.00, 0.00
68, -187500.02, -187500.02, 4463.06, -187500.02, -187500.02, -187500.02, -187500.02, -187500.02, -0.01, 0.00, 1.03
69, -187500.02, -187500.02, 4433.54, -187500.02, -187500.02, -187500.02, -187500.02, -187500.02, 0.00, 0.00, 0.00
70, -187500.02, -187500.02, 4410.25, -187500.02, -187500.02, -187500.02, -187500.02, -187500.02, 0.00, 0.00, 0.00
71, -187500.02, -187500.02, 4395.09, -187500.02, -187500.02, -187500.02, -187500.02, -187500.02, 0.00, 0.00, 0.00
72, -187500.02, -187500.02, 4350.16, -187500.02, -187500.02, -187500.02, -187500.02, -187500.02, 0.00, 0.00, 0.00
73, -187500.02, -187500.02, 4336.19, -187500.02, -187500.02, -187500.02, -187500.02, -187500.02, 0.00, 0.00, 0.00
74, -187500.02, -187500.02, 4363.31, -187500.02, -187500.02, -187500.02, -187500.02, -187500.02, 0.00, 0.00, 0.00
75, -187500.02, -187500.02, 4384.36, -187500.02, -187500.02, -187500.02, -187500.02, -187500.02, 0.00, 0.00, 0.00
76, -187500.02, -187500.02, 4313.46, -187500.02, -187500.02, -187500.02, -187500.02, -187500.02, 0.00, 0.00, 0.00
77, -187500.02, -187500.02, 4293.08, -187500.02, -187500.02, -187500.02, -187500.02, -187500.02, 0.00, 0.00, 0.00
78, -187500.02, -187500.02, 4359.13, -187500.02, -187500.02, -187500.02, -187500.02, -187500.02, -0.01, -0.01, 1.03
79, -187500.02, -187500.02, 4406.87, -187500.02, -187500.02, -187500.02, -187500.02, -187500.02, 0.00, 0.00, 0.00
80, -187500.02, -187500.02, 4357.54, -187500.02, -187500.02, -187500.02, -187500.02, -187500.02, 0.00, 0.00, 0.00
81, -187500.02, -187500.02, 4231.79, -187500.02, -187500.02, -187500.02, -187500.02, -187500.02, 0.00, 0.00, 0.00
82, -187500.02, -187500.02, 4029.35, -187500.02, -187500.02, -187500.02, -187500.02, -187500.02, 0.00, 0.00, 0.00
83, -187500.02, -187500.02, 4229.31, -187500.02, -187500.02, -187500.02, -187500.02, -187500.02, 0.00, 0.00, 0.00
84, -187500.02, -187500.02, 4551.80, -187500.02, -187500.02, -187500.02, -187500.02, -187500.02, 0.00, 0.00, 0.00
85, -187500.02, -187500.02, 4531.17, -187500.02, -187500.02, -187500.02, -187500.02, -187500.02, 0.00, 0.00, 0.00
86, -187500.02, -187500.02, 4455.98, -187500.02, -187500.02, -187500.02, -187500.02, -187500.02, 0.00, 0.00, 0.00
87, -187500.02, -187500.02, 4437.94, -187500.02, -187500.02, -187500.02, -187500.02, -187500.02, 0.00, 0.00, 0.00
88, -187500.02, -187500.02, 4385.39, -187500.02, -187500.02, -187500.02, -187500.02, -187500.02, -0.01, -0.01, 1.03
89, -187500.02, -187500.02, 4328.95, -187500.02, -187500.02, -187500.02, -187500.02, -187500.02, 0.00, 0.00, 0.00
90, -187500.02, -187500.02, 4356.04, -187500.02, -187500.02, -187500.02, -187500.02, -187500.02, 0.00, 0.00, 0.00
91, -187500.02, -187500.02, 4385.23, -187500.02, -187500.02, -187500.02, -187500.02, -187500.02, 0.00, 0.00, 0.00
92, -187500.02, -187500.02, 4364.04, -187500.02, -187500.02, -187500.02, -187500.02, -187500.02, 0.00, 0.00, 0.00
93, -187500.02, -187500.02, 4319.23, -187500.02, -187500.02, -187500.02, -187500.02, -187500.02, 0.00, 0.00, 0.00
94, -187500.02, -187500.02, 4331.75, -187500.02, -187500.02, -187500.02, -187500.02, -187500.02, 0.00, 0.00, 0.00
95, -187500.02, -187500.02, 4368.80, -187500.02, -187500.02, -187500.02, -187500.02, -187500.02, 0.00, 0.00, 0.00
96, -187500.02, -187500.02, 4362.95, -187500.02, -187500.02, -187500.02, -187500.02, -187500.02, 0.00, 0.00, 0.00
97, -187500.02, -187500.02, 4318.94, -187500.02, -187500.02, -187500.02, -187500.02, -187500.02, 0.00, 0.00, 0.00
98, -187500.02, -187500.02, 4328.26, -187500.02, -187500.02, -187500.02, -187500.02, -187500.02, -0.01, -0.00, 1.03
99, -187500.02, -187500.02, 4356.33, -187500.02, -187500.02, -187500.02, -187500.02, -187500.02, 0.00, 0.00, 0.00
100, -187500.02, -187500.02, 4370.91, -187500.02, -187500.02, -187500.02, -187500.02, -187500.02, 0.00, 0.00, 0.00
101, -187500.02, -187500.02, 4330.20, -187500.02, -187500.02, -187500.02, -187500.02, -187500.02, 0.00, 0.00, 0.00
102, -187500.02, -187500.02, 4321.06, -187500.02, -187500.02, -187500.02, -187500.02, -187500.02, 0.00, 0.00, 0.00
103, -187500.02, -187500.02, 4356.82, -187500.02, -187500.02, -187500.02, -187500.02, -187500.02, 0.00, 0.00, 0.00
104, -187500.02, -187500.02, 4379.87, -187500.02, -187500.02, -187500.02, -187500.02, -187500.02, 0.00, 0.00, 0.00
105, -187500.02, -187500.02, 4328.33, -187500.02, -187500.02, -187500.02, -187500.02, -187500.02, 0.00, 0.00, 0.00
106, -187500.02, -187500.02, 4325.15, -187500.02, -187500.02, -187500.02, -187500.02, -187500.02, 0.00, 0.00, 0.00
107, -187500.02, -187500.02, 4353.96, -187500.02, -187500.02, -187500.02, -187500.02, -187500.02, 0.00, 0.00, 0.00
108, -187500.02, -187500.02, 4380.14, -187500.02, -187500.02, -187500.02, -187500.02, -187500.02, -0.01, -0.00, 1.03
109, -187500.02, -187500.02, 4343.23, -187500.02, -187500.02, -187500.02, -187500.02, -187500.02, 0.00, 0.00, 0.00
110, -187500.02, -187500.02, 4322.22, -187500.02, -187500.02, -187500.02, -187500.02, -187500.02, 0.00, 0.00, 0.00
111, -187500.02, -187500.02, 4340.95, -187500.02, -187500.02, -187500.02, -187500.02, -187500.02, 0.00, 0.00, 0.00
112, -187500.02, -187500.02, 4349.67, -187500.02, -187500.02, -187500.02, -187500.02, -187500.02, 0.00, 0.00, 0.00
113, -187500.02, -187500.02, 4282.62, -187500.02, -187500.02, -187500.02, -187500.02, -187500.02, 0.00, 0.00, 0.00
114, -187500.02, -187500.02, 4161.96, -187500.02, -187500.02, -187500.02, -187500.02, -187500.02, 0.00, 0.00, 0.00
115, -187500.02, -187500.02, 4128.46, -187500.02, -187500.02, -187500.02, -187500.02, -187500.02, 0.00, 0.00, 0.00
116, -187500.02, -187500.02, 4191.15, -187500.02, -187500.02, -187500.02, -187500.02, -187500.02, 0.00, 0.00, 0.00
117, -187500.02, -187500.02, 4174.03, -187500.02, -187500.02, -187500.02, -187500.02, -187500.02, 0.00, 0.00, 0.00
118, -187500.02, -187500.02, 4328.53, -187500.02, -187500.02, -187500.02, -187500.02, -187500.02, -0.01, -0.00, 1.03
119, -187500.02, -187500.02, 4649.92, -187500.02, -187500.02, -187500.02, -187500.02, -187500.02, 0.00, 0.00, 0.00
120, -187500.02, -187500.02, 4552.13, -187500.02, -187500.02, -187500.02, -187500.02, -187500.02, 0.00, 0.00, 0.00
121, -187500.02, -187500.02, 4461.61, -187500.02, -187500.02, -187500.02, -187500.02, -187500.02, 0.00, 0.00, 0.00
122, -187500.02, -187500.02, 4396.45, -187500.02, -187500.02, -187500.02, -187500.02, -187500.02, 0.00, 0.00, 0.00
123, -187500.02, -187500.02, 4371.87, -187500.02, -187500.02, -187500.02, -187500.02, -187500.02, 0.00, 0.00, 0.00
124, -187500.02, -187500.02, 4389.64, -187500.02, -187500.02, -187500.02, -187500.02, -187500.02, 0.00, 0.00, 0.00
125, -187500.02, -187500.02, 4387.67, -187500.02, -187500.02, -187500.02, -187500.02, -187500.02, 0.00, 0.00, 0.00
126, -187500.02, -187500.02, 4344.62, -187500.02, -187500.02, -187500.02, -187500.02, -187500.02, 0.00, 0.00, 0.00
127, -187500.02, -187500.02, 4339.08, -187500.02, -187500.02, -187500.02, -187500.02, -187500.02, 0.00, 0.00, 0.00
128, -187500.02, -187500.02, 4355.66, -187500.02, -187500.02, -187500.02, -187500.02, -187500.02, 0.00, 0.00, 0.00
129, -187500.02, -187500.02, 4370.64, -187500.02, -187500.02, -187500.02, -187500.02, -187500.02, -0.01, -0.00, 1.03
130, -187500.02, -187500.02, 4336.22, -187500.02, -187500.02, -187500.02, -187500.02, -187500.02, 0.00, 0.00, 0.00
131, -187500.02, -187500.02, 4313.22, -187500.02, -187500.02, -187500.02, -187500.02, -187500.02, 0.00, 0.00, 0.00
132, -187500.02, -187500.02, 4336.89, -187500.02, -187500.02, -187500.02, -187500.02, -187500.02, 0.00, 0.00, 0.00
133, -187500.02, -187500.02, 4363.46, -187500.02, -187500.02, -187500.02, -187500.02, -187500.02, 0.00, 0.00, 0.00
134, -187500.02, -187500.02, 4344.17, -187500.02, -187500.02, -187500.02, -187500.02, -187500.02, 0.00, 0.00, 0.00
135, -187500.02, -187500.02, 4320.12, -187500.02, -187500.02, -187500.02, -187500.02, -187500.02, 0.00, 0.00, 0.00
136, -187500.02, -187500.02, 4305.46, -187500.02, -187500.02, -187500.02, -187500.02, -187500.02, 0.00, 0.00, 0.00
137, -187500.02, -187500.02, 4242.81, -187500.02, -187500.02, -187500.02, -187500.02, -187500.02, 0.00, 0.00, 0.00
138, -187500.02, -187500.02, 4294.46, -187500.02, -187500.02, -187500.02, -187500.02, -187500.02, 0.00, 0.00, 0.00
139, -187500.02, -187500.02, 4378.26, -187500.02, -187500.02, -187500.02, -187500.02, -187500.02, -0.00, -0.01, 1.03
140, -187500.02, -187500.02, 4388.61, -187500.02, -187500.02, -187500.02, -187500.02, -187500.02, 0.00, 0.00, 0.00
141, -187500.02, -187500.02, 4392.83, -187500.02, -187500.02, -187500.02, -187500.02, -187500.02, 0.00, 0.00, 0.00
142, -187500.02, -187500.02, 4376.92, -187500.02, -187500.02, -187500.02, -187500.02, -187500.02, 0.00, 0.00, 0.00
143, -187500.02, -187500.02, 4329.20, -187500.02, -187500.02, -187500.02, -187500.02, -187500.02, 0.00, 0.00, 0.00
144, -187500.02, -187500.02, 4326.05, -187500.02, -187500.02, -187500.02, -187500.02, -187500.02, 0.00, 0.00, 0.00
145, -187500.02, -187500.02, 4351.66, -187500.02, -187500.02, -187500.02, -187500.02, -187500.02, 0.00, 0.00, 0.00
146, -187500.02, -187500.02, 4350.01, -187500.02, -187500.02, -187500.02, -187500.02, -187500.02, 0.00, 0.00, 0.00
147, -187500.02, -187500.02, 4312.12, -187500.02, -187500.02, -187500.02, -187500.02, -187500.02, 0.00, 0.00, 0.00
148, -187500.02, -187500.02, 4317.98, -187500.02, -187500.02, -187500.02, -187500.02, -187500.02, 0.00, 0.00, 0.00
149, -187500.02, -187500.02, 4342.36, -187500.02, -187500.02, -187500.02, -187500.02, -187500.02, -0.01, -0.01, 1.03
150, -187500.02, -187500.02, 4353.25, -187500.02, -187500.02, -187500.02, -187500.02, -187500.02, 0.00, 0.00, 0.00
151, -187500.02, -187500.02, 4310.42, -187500.02, -187500.02, -187500.02, -187500.02, -187500.02, 0.00, 0.00, 0.00
152, -187500.02, -187500.02, 4305.30, -187500.02, -187500.02, -187500.02, -187500.02, -187500.02, 0.00, 0.00, 0.00
153, -187500.02, -187500.02, 4338.41, -187500.02, -187500.02, -187500.02, -187500.02, -187500.02, 0.00, 0.00, 0.00
154, -187500.02, -187500.02, 4353.05, -187500.02, -187500.02, -187500.02, -187500.02, -187500.02, 0.00, 0.00, 0.00
155, -187500.02, -187500.02, 4327.72, -187500.02, -187500.02, -187500.02, -187500.02, -187500.02, 0.00, 0.00, 0.00
156, -187500.02, -187500.02, 4300.43, -187500.02, -187500.02, -187500.02, -187500.02, -187500.02, 0.00, 0.00, 0.00
157, -187500.02, -187500.02, 4304.32, -187500.02, -187500.02, -187500.02, -187500.02, -187500.02, 0.00, 0.00, 0.00
158, -187500.02, -187500.02, 4331.86, -187500.02, -187500.02, -187500.02, -187500.02, -187500.02, 0.00, 0.00, 0.00
159, -187500.02, -187500.02, 4274.66, -187500.02, -187500.02, -187500.02, -187500.02, -187500.02, -0.01, -0.01, 1.03
160, -187500.02, -187500.02, 4287.71, -187500.02, -187500.02, -187500.02, -187500.02, -187500.02, 0.00, 0.00, 0.00
161, -187500.02, -187500.02, 4326.05, -187500.02, -187500.02, -187500.02, -187500.02, -187500.02, 0.00, 0.00, 0.00
162, -187500.02, -187500.02, 4253.87, -187500.02, -187500.02, -187500.02, -187500.02, -187500.02, 0.00, 0.00, 0.00
163, -187500.02, -187500.02, 4157.71, -187500.02, -187500.02, -187500.02, -187500.02, -187500.02, 0.00, 0.00, 0.00
164, -187500.02, -187500.02, 4268.27, -187500.02, -187500.02, -187500.02, -187500.02, -187500.02, 0.00, 0.00, 0.00
165, -187500.02, -187500.02, 4363.31, -187500.02, -187500.02, -187500.02, -187500.02, -187500.02, 0.00, 0.00, 0.00
166, -187500.02, -187500.02, 4460.89, -187500.02, -187500.02, -187500.02, -187500.02, -187500.02, 0.00, 0.00, 0.00
167, -187500.02, -187500.02, 4436.91, -187500.02, -187500.02, -187500.02, -187500.02, -187500.02, 0.00, 0.00, 0.00
168, -187500.02, -187500.02, 4359.37, -187500.02, -187500.02, -187500.02, -187500.02, -187500.02, 0.00, 0.00, 0.00
169, -187500.02, -187500.02, 4347.19, -187500.02, -187500.02, -187500.02, -187500.02, -187500.02, -0.01, -0.01, 1.03
170, -187500.02, -187500.02, 4355.08, -187500.02, -187500.02, -187500.02, -187500.02, -187500.02, 0.00, 0.00, 0.00
171, -187500.02, -187500.02, 4351.66, -187500.02, -187500.02, -187500.02, -187500.02, -187500.02, 0.00, 0.00, 0.00
172, -187500.02, -187500.02, 4308.77, -187500.02, -187500.02, -187500.02, -187500.02, -187500.02, 0.00, 0.00, 0.00
173, -187500.02, -187500.02, 4310.62, -187500.02, -187500.02, -187500.02, -187500.02, -187500.02, 0.00, 0.00, 0.00
174, -187500.02, -187500.02, 4330.11, -187500.02, -187500.02, -187500.02, -187500.02, -187500.02, 0.00, 0.00, 0.00
175, -187500.02, -187500.02, 4325.73, -187500.02, -187500.02, -187500.02, -187500.02, -187500.02, 0.00, 0.00, 0.00
176, -187500.02, -187500.02, 4289.10, -187500.02, -187500.02, -187500.02, -187500.02, -187500.02, 0.00, 0.00, 0.00
177, -187500.02, -187500.02, 4285.03, -187500.02, -187500.02, -187500.02, -187500.02, -187500.02, 0.00, 0.00, 0.00
178, -187500.02, -187500.02, 4329.56, -187500.02, -187500.02, -187500.02, -187500.02, -187500.02, 0.00, 0.00, 0.00
179, -187500.02, -187500.02, 4366.73, -187500.02, -187500.02, -187500.02, -187500.02, -187500.02, -0.00, -0.00, 1.03
180, -187500.02, -187500.02, 4285.46, -187500.02, -187500.02, -187500.02, -187500.02, -187500.02, 0.00, 0.00, 0.00
181, -187500.02, -187500.02, 4271.66, -187500.02, -187500.02, -187500.02, -187500.02, -187500.02, 0.00, 0.00, 0.00
182, -187500.02, -187500.02, 4314.91, -187500.02, -187500.02, -187500.02, -187500.02, -187500.02, 0.00, 0.00, 0.00
183, -187500.02, -187500.02, 4337.20, -187500.02, -187500.02, -187500.02, -187500.02, -187500.02, 0.00, 0.00, 0.00
184, -187500.02, -187500.02, 4306.29, -187500.02, -187500.02, -187500.02, -187500.02, -187500.02, 0.00, 0.00, 0.00
185, -187500.02, -187500.02, 4278.75, -187500.02, -187500.02, -187500.02, -187500.02, -187500.02, 0.00, 0.00, 0.00
186, -187500.02, -187500.02, 4283.53, -187500.02, -187500.02, -187500.02, -187500.02, -187500.02, 0.00, 0.00, 0.00
187, -187500.02, -187500.02, 4319.41, -187500.02, -187500.02, -187500.02, -187500.02, -187500.02, 0.00, 0.00, 0.00
188, -187500.02, -187500.02, 4321.67, -187500.02, -187500.02, -187500.02, -187500.02, -187500.02, 0.00, 0.00, 0.00
189, -187500.02, -187500.02, 4274.46, -187500.02, -187500.02, -187500.02, -187500.02, -187500.02, 0.00, 0.00, 0.00
190, -187500.02, -187500.02, 4323.59, -187500.02, -187500.02, -187500.02, -187500.02, -187500.02, -0.00, -0.01, 1.03
191, -187500.02, -187500.02, 4373.68, -187500.02, -187500.02, -187500.02, -187500.02, -187500.02, 0.00, 0.00, 0.00
192, -187500.02, -187500.02, 4360.67, -187500.02, -187500.02, -187500.02, -187500.02, -187500.02, 0.00, 0.00, 0.00
193, -187500.02, -187500.02, 4306.42, -187500.02, -187500.02, -187500.02, -187500.02, -187500.02, 0.00, 0.00, 0.00
194, -187500.02, -187500.02, 4287.35, -187500.02, -187500.02, -187500.02, -187500.02, -187500.02, 0.00, 0.00, 0.00
195, -187500.02, -187500.02, 4301.01, -187500.02, -187500.02, -187500.02, -187500.02, -187500.02, 0.00, 0.00, 0.00
196, -187500.02, -187500.02, 4351.53, -187500.02, -187500.02, -187500.02, -187500.02, -187500.02, 0.00, 0.00, 0.00
197, -187500.02, -187500.02, 4311.45, -187500.02, -187500.02, -187500.02, -187500.02, -187500.02, 0.00, 0.00, 0.00
198, -187500.02, -187500.02, 4280.54, -187500.02, -187500.02, -187500.02, -187500.02, -187500.02, 0.00, 0.00, 0.00
199, -187500.02, -187500.02, 4313.75, -187500.02, -187500.02, -187500.02, -187500.02, -187500.02, 0.00, 0.00, 0.00
200, -187500.02, -187500.02, 4324.03, -187500.02, -187500.02, -187500.02, -187500.02, -187500.02, -0.01, -0.01, 1.03
201, -187500.02, -187500.02, 4287.82, -187500.02, -187500.02, -187500.02, -187500.02, -187500.02, 0.00, 0.00, 0.00
202, -187500.02, -187500.02, 4270.48, -187500.02, -187500.02, -187500.02, -187500.02, -187500.02, 0.00, 0.00, 0.00
203, -187500.02, -187500.02, 4278.03, -187500.02, -187500.02, -187500.02, -187500.02, -187500.02, 0.00, 0.00, 0.00
204, -187500.02, -187500.02, 4312.34, -187500.02, -187500.02, -187500.02, -187500.02, -187500.02, 0.00, 0.00, 0.00
205, -187500.02, -187500.02, 4314.18, -187500.02, -187500.02, -187500.02, -187500.02, -187500.02, 0.00, 0.00, 0.00
206, -187500.02, -187500.02, 4318.42, -187500.02, -187500.02, -187500.02, -187500.02, -187500.02, 0.00, 0.00, 0.00
207, -187500.02, -187500.02, 4277.39, -187500.02, -187500.02, -187500.02, -187500.02, -187500.02, 0.00, 0.00, 0.00
208, -187500.02, -187500.02, 4202.11, -187500.02, -187500.02, -187500.02, -187500.02, -187500.02, 0.00, 0.00, 0.00
209, -187500.02, -187500.02, 4162.21, -187500.02, -187500.02, -187500.02, -187500.02, -187500.02, 0.00, 0.00, 0.00
210, -187500.02, -187500.02, 4323.19, -187500.02, -187500.02, -187500.02, -187500.02, -187500.02, -0.01, 0.00, 1.03
211, -187500.02, -187500.02, 4356.67, -187500.02, -187500.02, -187500.02, -187500.02, -187500.02, 0.00, 0.00, 0.00
212, -187500.02, -187500.02, 4310.31, -187500.02, -187500.02, -187500.02, -187500.02, -187500.02, 0.00, 0.00, 0.00
213, -187500.02, -187500.02, 4440.40, -187500.02, -187500.02, -187500.02, -187500.02, -187500.02, 0.00, 0.00, 0.00
214, -187500.02, -187500.02, 4359.37, -187500.02, -187500.02, -187500.02, -187500.02, -187500.02, 0.00, 0.00, 0.00
215, -187500.02, -187500.02, 4329.09, -187500.02, -187500.02, -187500.02, -187500.02, -187500.02, 0.00, 0.00, 0.00
216, -187500.02, -187500.02, 4344.82, -187500.02, -187500.02, -187500.02, -187500.02, -187500.02, 0.00, 0.00, 0.00
217, -187500.02, -187500.02, 4337.40, -187500.02, -187500.02, -187500.02, -187500.02, -187500.02, 0.00, 0.00, 0.00
218, -187500.02, -187500.02, 4294.35, -187500.02, -187500.02, -187500.02, -187500.02, -187500.02, 0.00, 0.00, 0.00
219, -187500.02, -187500.02, 4291.51, -187500.02, -187500.02, -187500.02, -187500.02, -187500.02, 0.00, 0.00, 0.00
220, -187500.02, -187500.02, 4298.87, -187500.02, -187500.02, -187500.02, -187500.02, -187500.02, -0.01, -0.00, 1.03
221, -187500.02, -187500.02, 4300.32, -187500.02, -187500.02, -187500.02, -187500.02, -187500.02, 0.00, 0.00, 0.00
222, -187500.02, -187500.02, 4282.66, -187500.02, -187500.02, -187500.02, -187500.02, -187500.02, 0.00, 0.00, 0.00
223, -187500.02, -187500.02, 4283.42, -187500.02, -187500.02, -187500.02, -187500.02, -187500.02, 0.00, 0.00, 0.00
224, -187500.02, -187500.02, 4255.53, -187500.02, -187500.02, -187500.02, -187500.02, -187500.02, 0.00, 0.00, 0.00
225, -187500.02, -187500.02, 4167.28, -187500.02, -187500.02, -187500.02, -187500.02, -187500.02, 0.00, 0.00, 0.00
226, -187500.02, -187500.02, 4236.44, -187500.02, -187500.02, -187500.02, -187500.02, -187500.02, 0.00, 0.00, 0.00
227, -187500.02, -187500.02, 4373.21, -187500.02, -187500.02, -187500.02, -187500.02, -187500.02, 0.00, 0.00, 0.00
228, -187500.02, -187500.02, 4398.11, -187500.02, -187500.02, -187500.02, -187500.02, -187500.02, 0.00, 0.00, 0.00
229, -187500.02, -187500.02, 4386.91, -187500.02, -187500.02, -187500.02, -187500.02, -187500.02, 0.00, 0.00, 0.00
230, -187500.02, -187500.02, 4323.39, -187500.02, -187500.02, -187500.02, -187500.02, -187500.02, -0.01, -0.00, 1.03
231, -187500.02, -187500.02, 4265.36, -187500.02, -187500.02, -187500.02, -187500.02, -187500.02, 0.00, 0.00, 0.00
232, -187500.02, -187500.02, 4211.63, -187500.02, -187500.02, -187500.02, -187500.02, -187500.02, 0.00, 0.00, 0.00
233, -187500.02, -187500.02, 4223.34, -187500.02, -187500.02, -187500.02, -187500.02, -187500.02, 0.00, 0.00, 0.00
234, -187500.02, -187500.02, 4240.15, -187500.02, -187500.02, -187500.02, -187500.02, -187500.02, 0.00, 0.00, 0.00
235, -187500.02, -187500.02, 4323.03, -187500.02, -187500.02, -187500.02, -187500.02, -187500.02, 0.00, 0.00, 0.00
236, -187500.02, -187500.02, 4392.97, -187500.02, -187500.02, -187500.02, -187500.02, -187500.02, 0.00, 0.00, 0.00
237, -187500.02, -187500.02, 4391.36, -187500.02, -187500.02, -187500.02, -187500.02, -187500.02, 0.00, 0.00, 0.00
238, -187500.02, -187500.02, 4353.96, -187500.02, -187500.02, -187500.02, -187500.02, -187500.02, 0.00, 0.00, 0.00
239, -187500.02, -187500.02, 4271.51, -187500.02, -187500.02, -187500.02, -187500.02, -187500.02, 0.00, 0.00, 0.00
240, -187500.02, -187500.02, 4215.74, -187500.02, -187500.02, -187500.02, -187500.02, -187500.02, -0.01, -0.00, 1.03
241, -187500.02, -187500.02, 4254.86, -187500.02, -187500.02, -187500.02, -187500.02, -187500.02, 0.00, 0.00, 0.00
242, -187500.02, -187500.02, 4393.64, -187500.02, -187500.02, -187500.02, -187500.02, -187500.02, 0.00, 0.00, 0.00
243, -187500.02, -187500.02, 4342.56, -187500.02, -187500.02, -187500.02, -187500.02, -187500.02, 0.00, 0.00, 0.00
244, -187500.02, -187500.02, 4300.01, -187500.02, -187500.02, -187500.02, -187500.02, -187500.02, 0.00, 0.00, 0.00
245, -187500.02, -187500.02, 4318.38, -187500.02, -187500.02, -187500.02, -187500.02, -187500.02, 0.00, 0.00, 0.00
246, -187500.02, -187500.02, 4322.31, -187500.02, -187500.02, -187500.02, -187500.02, -187500.02, 0.00, 0.00, 0.00
247, -187500.02, -187500.02, 4276.13, -187500.02, -187500.02, -187500.02, -187500.02, -187500.02, 0.00, 0.00, 0.00
248, -187500.02, -187500.02, 4251.97, -187500.02, -187500.02, -187500.02, -187500.02, -187500.02, 0.00, 0.00, 0.00
249, -187500.02, -187500.02, 4236.10, -187500.02, -187500.02, -187500.02, -187500.02, -187500.02, 0.00, 0.00, 0.00
250, -187500.02, -187500.02, 4248.82, -187500.02, -187500.02, -187500.02, -187500.02, -187500.02, 0.00, 0.00, 0.00
251, -187500.02, -187500.02, 4192.78, -187500.02, -187500.02, -187500.02, -187500.02, -187500.02, -0.01, -0.01, 1.03
252, -187500.02, -187500.02, 4227.59, -187500.02, -187500.02, -187500.02, -187500.02, -187500.02, 0.00, 0.00, 0.00
253, -187500.02, -187500.02, 4363.02, -187500.02, -187500.02, -187500.02, -187500.02, -187500.02, 0.00, 0.00, 0.00
254, -187500.02, -187500.02, 4345.54, -187500.02, -187500.02, -187500.02, -187500.02, -187500.02, 0.00, 0.00, 0.00
255, -187500.02, -187500.02, 4344.98, -187500.02, -187500.02, -187500.02, -187500.02, -187500.02, 0.00, 0.00, 0.00
0, -187500.02, -187500.02, 4311.36, -187500.02, -187500.02, -187500.02, -187500.02, -187500.02, 0.00, 0.00, 0.00
1, -187500.02, -187500.02, 4298.15, -187500.02, -187500.02, -187500.02, -187500.02, -187500.02, 0.00, 0.00, 0.00
2, -187500.02, -187500.02, 4324.24, -187500.02, -187500.02, -187500.02, -187500.02, -187500.02, 0.00, 0.00, 0.00
3, -187500.02, -187500.02, 4309.82, -187500.02, -187500.02, -187500.02, -187500.02, -187500.02, 0.00, 0.00, 0.00
4, -187500.02, -187500.02, 4292.38, -187500.02, -187500.02, -187500.02, -187500.02, -187500.02, 0.00, 0.00, 0.00
5, -187500.02, -187500.02, 4296.45, -187500.02, -187500.02, -187500.02, -187500.02, -187500.02, -0.01, 0.00, 1.03
6, -187500.02, -187500.02, 4304.36, -187500.02, -187500.02, -187500.02, -187500.02, -187500.02, 0.00, 0.00, 0.00
7, -187500.02, -187500.02, 4302.22, -187500.02, -187500.02, -187500.02, -187500.02, -187500.02, 0.00, 0.00, 0.00
8, -187500.02, -187500.02, 4265.65, -187500.02, -187500.02, -187500.02, -187500.02, -187500.02, 0.00, 0.00, 0.00
9, -187500.02, -187500.02, 4261.65, -187500.02, -187500.02, -187500.02, -187500.02, -187500.02, 0.00, 0.00, 0.00
10, -187500.02, -187500.02, 4295.63, -187500.02, -187500.02, -187500.02, -187500.02, -187500.02, 0.00, 0.00, 0.00
11, -187500.02, -187500.02, 4306.22, -187500.02, -187500.02, -187500.02, -187500.02, -187500.02, 0.00, 0.00, 0.00
12, -187500.02, -187500.02, 4261.96, -187500.02, -187500.02, -187500.02, -187500.02, -187500.02, 0.00, 0.00, 0.00
13, -187500.02, -187500.02, 4251.70, -187500.02, -187500.02, -187500.02, -187500.02, -187500.02, 0.00, 0.00, 0.00
14, -187500.02, -187500.02, 4286.01, -187500.02, -187500.02, -187500.02, -187500.02, -187500.02, 0.00, 0.00, 0.00
15, -187500.02, -187500.02, 4308.14, -187500.02, -187500.02, -187500.02, -187500.02, -187500.02, -0.01, -0.00, 1.04
16, -187500.02, -187500.02, 4254.16, -187500.02, -187500.02, -187500.02, -187500.02, -187500.02, 0.00, 0.00, 0.00
17, -187500.02, -187500.02, 4208.14, -187500.02, -187500.02, -187500.02, -187500.02, -187500.02, 0.00, 0.00, 0.00
18, -187500.02, -187500.02, 4285.97, -187500.02, -187500.02, -187500.02, -187500.02, -187500.02, 0.00, 0.00, 0.00
19, -187500.02, -187500.02, 4329.60, -187500.02, -187500.02, -187500.02, -187500.02, -187500.02, 0.00, 0.00, 0.00
20, -187500.02, -187500.02, 4286.01, -187500.02, -187500.02, -187500.02, -187500.02, -187500.02, 0.00, 0.00, 0.00
21, -187500.02, -187500.02, 4263.75, -187500.02, -187500.02, -187500.02, -187500.02, -187500.02, 0.00, 0.00, 0.00
22, -187500.02, -187500.02, 4299.98, -187500.02, -187500.02, -187500.02, -187500.02, -187500.02, 0.00, 0.00, 0.00
23, -187500.02, -187500.02, 4312.46, -187500.02, -187500.02, -187500.02, -187500.02, -187500.02, 0.00, 0.00, 0.00
24, -187500.02, -187500.02, 4272.18, -187500.02, -187500.02, -187500.02, -187500.02, -187500.02, 0.00, 0.00, 0.00
25, -187500.02, -187500.02, 4237.82, -187500.02, -187500.02, -187500.02, -187500.02, -187500.02, -0.01, -0.01, 1.04
26, -187500.02, -187500.02, 4283.44, -187500.02, -187500.02, -187500.02, -187500.02, -187500.02, 0.00, 0.00, 0.00
27, -187500.02, -187500.02, 4285.75, -187500.02, -187500.02, -187500.02, -187500.02, -187500.02, 0.00, 0.00, 0.00
28, -187500.02, -187500.02, 4288.52, -187500.02, -187500.02, -187500.02, -187500.02, -187500.02, 0.00, 0.00, 0.00
29, -187500.02, -187500.02, 4224.37, -187500.02, -187500.02, -187500.02, -187500.02, -187500.02, 0.00, 0.00, 0.00
30, -187500.02, -187500.02, 4183.64, -187500.02, -187500.02, -187500.02, -187500.02, -187500.02, 0.00, 0.00, 0.00
31, -187500.02, -187500.02, 4301.28, -187500.02, -187500.02, -187500.02, -187500.02, -187500.02, 0.00, 0.00, 0.00
32, -187500.02, -187500.02, 4333.58, -187500.02, -187500.02, -187500.02, -187500.02, -187500.02, 0.00, 0.00, 0.00
33, -187500.02, -187500.02, 4297.03, -187500.02, -187500.02, -187500.02, -187500.02, -187500.02, 0.00, 0.00, 0.00
34, -187500.02, -187500.02, 4287.27, -187500.02, -187500.02, -187500.02, -187500.02, -187500.02, 0.00, 0.00, 0.00
35, -187500.02, -187500.02, 4304.25, -187500.02, -187500.02, -187500.02, -187500.02, -187500.02, -0.01, 0.00, 1.03
36, -187500.02, -187500.02, 4329.56, -187500.02, -187500.02, -187500.02, -187500.02, -187500.02, 0.00, 0.00, 0.00
37, -187500.02, -187500.02, 4290.84, -187500.02, -187500.02, -187500.02, -187500.02, -187500.02, 0.00, 0.00, 0.00
38, -187500.02, -187500.02, 4280.94, -187500.02, -187500.02, -187500.02, -187500.02, -187500.02, 0.00, 0.00, 0.00
39, -187500.02, -187500.02, 4294.53, -187500.02, -187500.02, -187500.02, -187500.02, -187500.02, 0.00, 0.00, 0.00
40, -187500.02, -187500.02, 4302.93, -187500.02, -187500.02, -187500.02, -187500.02, -187500.02, 0.00, 0.00, 0.00
41, -187500.02, -187500.02, 4274.35, -187500.02, -187500.02, -187500.02, -187500.02, -187500.02, 0.00, 0.00, 0.00
42, -187500.02, -187500.02, 4252.49, -187500.02, -187500.02, -187500.02, -187500.02, -187500.02, 0.00, 0.00, 0.00
43, -187500.02, -187500.02, 4279.29, -187500.02, -187500.02, -187500.02, -187500.02, -187500.02, 0.00, 0.00, 0.00
44, -187500.02, -187500.02, 4309.44, -187500.02, -187500.02, -187500.02, -187500.02, -187500.02, 0.00, 0.00, 0.00
45, -187500.02, -187500.02, 4270.10, -187500.02, -187500.02, -187500.02, -187500.02, -187500.02, -0.01, 0.00, 1.03
46, -187500.02, -187500.02, 4233.33, -187500.02, -187500.02, -187500.02, -187500.02, -187500.02, 0.00, 0.00, 0.00
47, -187500.02, -187500.02, 4255.19, -187500.02, -187500.02, -187500.02, -187500.02, -187500.02, 0.00, 0.00, 0.00
48, -187500.02, -187500.02, 4213.26, -187500.02, -187500.02, -187500.02, -187500.02, -187500.02, 0.00, 0.00, 0.00
49, -187500.02, -187500.02, 4246.12, -187500.02, -187500.02, -187500.02, -187500.02, -187500.02, 0.00, 0.00, 0.00
50, -187500.02, -187500.02, 4287.24, -187500.02, -187500.02, -187500.02, -187500.02, -187500.02, 0.00, 0.00, 0.00
51, -187500.02, -187500.02, 4332.68, -187500.02, -187500.02, -187500.02, -187500.02, -187500.02, 0.00, 0.00, 0.00
52, -187500.02, -187500.02, 4353.36, -187500.02, -187500.02, -187500.02, -187500.02, -187500.02, 0.00, 0.00, 0.00
53, -187500.02, -187500.02, 4315.97, -187500.02, -187500.02, -187500.02, -187500.02, -187500.02, 0.00, 0.00, 0.00
54, -187500.02, -187500.02, 4271.93, -187500.02, -187500.02, -187500.02, -187500.02, -187500.02, 0.00, 0.00, 0.00
55, -187500.02, -187500.02, 4263.55, -187500.02, -187500.02, -187500.02, -187500.02, -187500.02, -0.01, 0.00, 1.03
56, -187500.02, -187500.02, 4284.67, -187500.02, -187500.02, -187500.02, -187500.02, -187500.02, 0.00, 0.00, 0.00
57, -187500.02, -187500.02, 4298.33, -187500.02, -187500.02, -187500.02, -187500.02, -187500.02, 0.00, 0.00, 0.00
58, -187500.02, -187500.02, 4282.91, -187500.02, -187500.02, -187500.02, -187500.02, -187500.02, 0.00, 0.00, 0.00
59, -187500.02, -187500.02, 4286.55, -187500.02, -187500.02, -187500.02, -187500.02, -187500.02, 0.00, 0.00, 0.00
60, -187500.02, -187500.02, 4283.22, -187500.02, -187500.02, -187500.02, -187500.02, -187500.02, 0.00, 0.00, 0.00
61, -187500.02, -187500.02, 4304.61, -187500.02, -187500.02, -187500.02, -187500.02, -187500.02, 0.00, 0.00, 0.00
62, -187500.02, -187500.02, 4281.72, -187500.02, -187500.02, -187500.02, -187500.02, -187500.02, 0.00, 0.00, 0.00
63, -187500.02, -187500.02, 4264.94, -187500.02, -187500.02, -187500.02, -187500.02, -187500.02, 0.00, 0.00, 0.00
64, -187500.02, -187500.02, 4279.64, -187500.02, -187500.02, -187500.02, -187500.02, -187500.02, 0.00, 0.00, 0.00
65, -187500.02, -187500.02, 4290.22, -187500.02, -187500.02, -187500.02, -187500.02, -187500.02, 0.00, 0.00, 0.00
66, -187500.02, -187500.02, 4266.68, -187500.02, -187500.02, -187500.02, -187500.02, -187500.02, -0.01, -0.01, 1.03
67, -187500.02, -187500.02, 4271.78, -187500.02, -187500.02, -187500.02, -187500.02, -187500.02, 0.00, 0.00, 0.00
68, -187500.02, -187500.02, 4258.30, -187500.02, -187500.02, -187500.02, -187500.02, -187500.02, 0.00, 0.00, 0.00
69, -187500.02, -187500.02, 4281.57, -187500.02, -187500.02, -187500.02, -187500.02, -187500.02, 0.00, 0.00, 0.00
70, -187500.02, -187500.02, 4247.57, -187500.02, -187500.02, -187500.02, -187500.02, -187500.02, 0.00, 0.00, 0.00
71, -187500.02, -187500.02, 4228.03, -187500.02, -187500.02, -187500.02, -187500.02, -187500.02, 0.00, 0.00, 0.00
72, -187500.02, -187500.02, 4307.54, -187500.02, -187500.02, -187500.02, -187500.02, -187500.02, 0.00, 0.00, 0.00
73, -187500.02, -187500.02, 4348.06, -187500.02, -187500.02, -187500.02, -187500.02, -187500.02, 0.00, 0.00, 0.00
74, -187500.02, -187500.02, 4308.34, -187500.02, -187500.02, -187500.02, -187500.02, -187500.02, 0.00, 0.00, 0.00
75, -187500.02, -187500.02, 4272.02, -187500.02, -187500.02, -187500.02, -187500.02, -187500.02, 0.00, 0.00, 0.00
76, -187500.02, -187500.02, 4281.05, -187500.02, -187500.02, -187500.02, -187500.02, -187500.02, -0.01, 0.00, 1.03
77, -187500.02, -187500.02, 4312.30, -187500.02, -187500.02, -187500.02, -187500.02, -187500.02, 0.00, 0.00, 0.00
78, -187500.02, -187500.02, 4304.97, -187500.02, -187500.02, -187500.02, -187500.02, -187500.02, 0.00, 0.00, 0.00
79, -187500.02, -187500.02, 4254.56, -187500.02, -187500.02, -187500.02, -187500.02, -187500.02, 0.00, 0.00, 0.00
80, -187500.02, -187500.02, 4259.80, -187500.02, -187500.02, -187500.02, -187500.02, -187500.02, 0.00, 0.00, 0.00
81, -187500.02, -187500.02, 4296.18, -187500.02, -187500.02, -187500.02, -187500.02, -187500.02, 0.00, 0.00, 0.00
82, -187500.02, -187500.02, 4312.05, -187500.02, -187500.02, -187500.02, -187500.02, -187500.02, 0.00, 0.00, 0.00
83, -187500.02, -187500.02, 4271.28, -187500.02, -187500.02, -187500.02, -187500.02, -187500.02, 0.00, 0.00, 0.00
84, -187500.02, -187500.02, 4244.55, -187500.02, -187500.02, -187500.02, -187500.02, -187500.02, 0.00, 0.00, 0.00
85, -187500.02, -187500.02, 4216.05, -187500.02, -187500.02, -187500.02, -187500.02, -187500.02, 0.00, 0.00, 0.00
86, -187500.02, -187500.02, 4279.13, -187500.02, -187500.02, -187500.02, -187500.02, -187500.02, -0.01, 0.00, 1.03
87, -187500.02, -187500.02, 4251.97, -187500.02, -187500.02, -187500.02, -187500.02, -187500.02, 0.00, 0.00, 0.00
88, -187500.02, -187500.02, 4192.92, -187500.02, -187500.02, -187500.02, -187500.02, -187500.02, 0.00, 0.00, 0.00
89, -187500.02, -187500.02, 4340.78, -187500.02, -187500.02, -187500.02, -187500.02, -187500.02, 0.00, 0.00, 0.00
90, -187500.02, -187500.02, 4356.69, -187500.02, -187500.02, -187500.02, -187500.02, -187500.02, 0.00, 0.00, 0.00
91, -187500.02, -187500.02, 4332.08, -187500.02, -187500.02, -187500.02, -187500.02, -187500.02, 0.00, 0.00, 0.00
92, -187500.02, -187500.02, 4303.47, -187500.02, -187500.02, -187500.02, -187500.02, -187500.02, 0.00, 0.00, 0.00
93, -187500.02, -187500.02, 4303.43, -187500.02, -187500.02, -187500.02, -187500.02, -187500.02, 0.00, 0.00, 0.00
94, -187500.02, -187500.02, 4318.74, -187500.02, -187500.02, -187500.02, -187500.02, -187500.02, 0.00, 0.00, 0.00
95, -187500.02, -187500.02, 4291.94, -187500.02, -187500.02, -187500.02, -187500.02, -187500.02, 0.00, 0.00, 0.00
96, -187500.02, -187500.02, 4259.12, -187500.02, -187500.02, -187500.02, -187500.02, -187500.02, -0.01, -0.00, 1.03
97, -187500.02, -187500.02, 4266.12, -187500.02, -187500.02, -187500.02, -187500.02, -187500.02, 0.00, 0.00, 0.00
98, -187500.02, -187500.02, 4296.07, -187500.02, -187500.02, -187500.02, -187500.02, -187500.02, 0.00, 0.00, 0.00
99, -187500.02, -187500.02, 4296.05, -187500.02, -187500.02, -187500.02, -187500.02, -187500.02, 0.00, 0.00, 0.00
100, -187500.02, -187500.02, 4250.12, -187500.02, -187500.02, -187500.02, -187500.02, -187500.02, 0.00, 0.00, 0.00
101, -187500.02, -187500.02, 4238.07, -187500.02, -187500.02, -187500.02, -187500.02, -187500.02, 0.00, 0.00, 0.00
102, -187500.02, -187500.02, 4259.19, -187500.02, -187500.02, -187500.02, -187500.02, -187500.02, 0.00, 0.00, 0.00
103, -187500.02, -187500.02, 4268.33, -187500.02, -187500.02, -187500.02, -187500.02, -187500.02, 0.00, 0.00, 0.00
104, -187500.02, -187500.02, 4300.83, -187500.02, -187500.02, -187500.02, -187500.02, -187500.02, 0.00, 0.00, 0.00
105, -187500.02, -187500.02, 4285.72, -187500.02, -187500.02, -187500.02, -187500.02, -187500.02, 0.00, 0.00, 0.00
106, -187500.02, -187500.02, 4304.07, -187500.02, -187500.02, -187500.02, -187500.02, -187500.02, -0.01, -0.00, 1.03
107, -187500.02, -187500.02, 4294.17, -187500.02, -187500.02, -187500.02, -187500.02, -187500.02, 0.00, 0.00, 0.00
108, -187500.02, -187500.02, 4224.23, -187500.02, -187500.02, -187500.02, -187500.02, -187500.02, 0.00, 0.00, 0.00
109, -187500.02, -187500.02, 4186.71, -187500.02, -187500.02, -187500.02, -187500.02, -187500.02, 0.00, 0.00, 0.00
110, -187500.02, -187500.02, 4191.04, -187500.02, -187500.02, -187500.02, -187500.02, -187500.02, 0.00, 0.00, 0.00
111, -187500.02, -187500.02, 4193.03, -187500.02, -187500.02, -187500.02, -187500.02, -187500.02, 0.00, 0.00, 0.00
112, -187500.02, -187500.02, 4339.23, -187500.02, -187500.02, -187500.02, -187500.02, -187500.02, 0.00, 0.00, 0.00
113, -187500.02, -187500.02, 4364.51, -187500.02, -187500.02, -187500.02, -187500.02, -187500.02, 0.00, 0.00, 0.00
114, -187500.02, -187500.02, 4311.56, -187500.02, -187500.02, -187500.02, -187500.02, -187500.02, 0.00, 0.00, 0.00
115, -187500.02, -187500.02, 4327.05, -187500.02, -187500.02, -187500.02, -187500.02, -187500.02, 0.00, 0.00, 0.00
116, -187500.02, -187500.02, 4301.57, -187500.02, -187500.02, -187500.02, -187500.02, -187500.02, -0.01, -0.00, 1.03
117, -187500.02, -187500.02, 4269.09, -187500.02, -187500.02, -187500.02, -187500.02, -187500.02, 0.00, 0.00, 0.00
118, -187500.02, -187500.02, 4275.42, -187500.02, -187500.02, -187500.02, -187500.02, -187500.02, 0.00, 0.00, 0.00
119, -187500.02, -187500.02, 4288.70, -187500.02, -187500.02, -187500.02, -187500.02, -187500.02, 0.00, 0.00, 0.00
120, -187500.02, -187500.02, 4269.00, -187500.02, -187500.02, -187500.02, -187500.02, -187500.02, 0.00, 0.00, 0.00
121, -187500.02, -187500.02, 4218.20, -187500.02, -187500.02, -187500.02, -187500.02, -187500.02, 0.00, 0.00, 0.00
122, -187500.02, -187500.02, 4282.48, -187500.02, -187500.02, -187500.02, -187500.02, -187500.02, 0.00, 0.00, 0.00
123, -187500.02, -187500.02, 4321.33, -187500.02, -187500.02, -187500.02, -187500.02, -187500.02, 0.00, 0.00, 0.00
124, -187500.02, -187500.02, 4295.69, -187500.02, -187500.02, -187500.02, -187500.02, -187500.02, 0.00, 0.00, 0.00
125, -187500.02, -187500.02, 4260.04, -187500.02, -187500.02, -187500.02, -187500.02, -187500.02, 0.00, 0.00, 0.00
126, -187500.02, -187500.02, 4260.15, -187500.02, -187500.02, -187500.02, -187500.02, -187500.02, 0.00, 0.00, 0.00
127, -187500.02, -187500.02, 4253.49, -187500.02, -187500.02, -187500.02, -187500.02, -187500.02, -0.01, 0.00, 1.03
128, -187500.02, -187500.02, 4222.89, -187500.02, -187500.02, -187500.02, -187500.02, -187500.02, 0.00, 0.00, 0.00
129, -187500.02, -187500.02, 4244.77, -187500.02, -187500.02, -187500.02, -187500.02, -187500.02, 0.00, 0.00, 0.00
130, -187500.02, -187500.02, 4286.15, -187500.02, -187500.02, -187500.02, -187500.02, -187500.02, 0.00, 0.00, 0.00
131, -187500.02, -187500.02, 4303.63, -187500.02, -187500.02, -187500.02, -187500.02, -187500.02, 0.00, 0.00, 0.00
132, -187500.02, -187500.02, 4285.48, -187500.02, -187500.02, -187500.02, -187500.02, -187500.02, 0.00, 0.00, 0.00
133, -187500.02, -187500.02, 4181.05, -187500.02, -187500.02, -187500.02, -187500.02, -187500.02, 0.00, 0.00, 0.00
134, -187500.02, -187500.02, 4180.33, -187500.02, -187500.02, -187500.02, -187500.02, -187500.02, 0.00, 0.00, 0.00
135, -187500.02, -187500.02, 4300.50, -187500.02, -187500.02, -187500.02, -187500.02, -187500.02, 0.00, 0.00, 0.00
136, -187500.02, -187500.02, 4266.59, -187500.02, -187500.02, -187500.02, -187500.02, -187500.02, 0.00, 0.00, 0.00
137, -187500.02, -187500.02, 4311.36, -187500.02, -187500.02, -187500.02, -187500.02, -187500.02, -0.01, -0.00, 1.04
138, -187500.02, -187500.02, 4347.39, -187500.02, -187500.02, -187500.02, -187500.02, -187500.02, 0.00, 0.00, 0.00
139, -187500.02, -187500.02, 4322.07, -187500.02, -187500.02, -187500.02, -187500.02, -187500.02, 0.00, 0.00, 0.00
140, -187500.02, -187500.02, 4327.50, -187500.02, -187500.02, -187500.02, -187500.02, -187500.02, 0.00, 0.00, 0.00
141, -187500.02, -187500.02, 4292.36, -187500.02, -187500.02, -187500.02, -187500.02, -187500.02, 0.00, 0.00, 0.00
142, -187500.02, -187500.02, 4255.86, -187500.02, -187500.02, -187500.02, -187500.02, -187500.02, 0.00, 0.00, 0.00
143, -187500.02, -187500.02, 4249.63, -187500.02, -187500.02, -187500.02, -187500.02, -187500.02, 0.00, 0.00, 0.00
144, -187500.02, -187500.02, 4277.43, -187500.02, -187500.02, -187500.02, -187500.02, -187500.02, 0.00, 0.00, 0.00
145, -187500.02, -187500.02, 4283.96, -187500.02, -187500.02, -187500.02, -187500.02, -187500.02, 0.00, 0.00, 0.00
146, -187500.02, -187500.02, 4271.06, -187500.02, -187500.02, -187500.02, -187500.02, -187500.02, 0.00, 0.00, 0.00
147, -187500.02, -187500.02, 4271.82, -187500.02, -187500.02, -187500.02, -187500.02, -187500.02, -0.01, -0.00, 1.03
148, -187500.02, -187500.02, 4292.34, -187500.02, -187500.02, -187500.02, -187500.02, -187500.02, 0.00, 0.00, 0.00
149, -187500.02, -187500.02, 4240.73, -187500.02, -187500.02, -187500.02, -187500.02, -187500.02, 0.00, 0.00, 0.00
150, -187500.02, -187500.02, 4115.56, -187500.02, -187500.02, -187500.02, -187500.02, -187500.02, 0.00, 0.00, 0.00
151, -187500.02, -187500.02, 4165.02, -187500.02, -187500.02, -187500.02, -187500.02, -187500.02, 0.00, 0.00, 0.00
152, -187500.02, -187500.02, 4298.73, -187500.02, -187500.02, -187500.02, -187500.02, -187500.02, 0.00, 0.00, 0.00
153, -187500.02, -187500.02, 4358.59, -187500.02, -187500.02, -187500.02, -187500.02, -187500.02, 0.00, 0.00, 0.00
154, -187500.02, -187500.02, 4289.25, -187500.02, -187500.02, -187500.02, -187500.02, -187500.02, 0.00, 0.00, 0.00
155, -187500.02, -187500.02, 4284.38, -187500.02, -187500.02, -187500.02, -187500.02, -187500.02, 0.00, 0.00, 0.00
156, -187500.02, -187500.02, 4321.67, -187500.02, -187500.02, -187500.02, -187500.02, -187500.02, 0.00, 0.00, 0.00
157, -187500.02, -187500.02, 4319.21, -187500.02, -187500.02, -187500.02, -187500.02, -187500.02, -0.01, -0.00, 1.03
158, -187500.02, -187500.02, 4218.98, -187500.02, -187500.02, -187500.02, -187500.02, -187500.02, 0.00, 0.00, 0.00
159, -187500.02, -187500.02, 4165.76, -187500.02, -187500.02, -187500.02, -187500.02, -187500.02, 0.00, 0.00, 0.00
160, -187500.02, -187500.02, 4203.22, -187500.02, -187500.02, -187500.02, -187500.02, -187500.02, 0.00, 0.00, 0.00
161, -187500.02, -187500.02, 4278.97, -187500.02, -187500.02, -187500.02, -187500.02, -187500.02, 0.00, 0.00, 0.00
162, -187500.02, -187500.02, 4335.79, -187500.02, -187500.02, -187500.02, -187500.02, -187500.02, 0.00, 0.00, 0.00
163, -187500.02, -187500.02, 4292.41, -187500.02, -187500.02, -187500.02, -187500.02, -187500.02, 0.00, 0.00, 0.00
164, -187500.02, -187500.02, 4303.92, -187500.02, -187500.02, -187500.02, -187500.02, -187500.02, 0.00, 0.00, 0.00
165, -187500.02, -187500.02, 4334.25, -187500.02, -187500.02, -187500.02, -187500.02, -187500.02, 0.00, 0.00, 0.00
166, -187500.02, -187500.02, 4299.42, -187500.02, -187500.02, -187500.02, -187500.02, -187500.02, 0.00, 0.00, 0.00
167, -187500.02, -187500.02, 4234.60, -187500.02, -187500.02, -187500.02, -187500.02, -187500.02, -0.01, -0.00, 1.03
168, -187500.02, -187500.02, 4204.72, -187500.02, -187500.02, -187500.02, -187500.02, -187500.02, 0.00, 0.00, 0.00
169, -187500.02, -187500.02, 4274.30, -187500.02, -187500.02, -187500.02, -187500.02, -187500.02, 0.00, 0.00, 0.00
170, -187500.02, -187500.02, 4268.49, -187500.02, -187500.02, -187500.02, -187500.02, -187500.02, 0.00, 0.00, 0.00
171, -187500.02, -187500.02, 4259.68, -187500.02, -187500.02, -187500.02, -187500.02, -187500.02, 0.00, 0.00, 0.00
172, -187500.02, -187500.02, 4273.65, -187500.02, -187500.02, -187500.02, -187500.02, -187500.02, 0.00, 0.00, 0.00
173, -187500.02, -187500.02, 4297.68, -187500.02, -187500.02, -187500.02, -187500.02, -187500.02, 0.00, 0.00, 0.00
174, -187500.02, -187500.02, 4321.17, -187500.02, -187500.02, -187500.02, -187500.02, -187500.02, 0.00, 0.00, 0.00
175, -187500.02, -187500.02, 4266.12, -187500.02, -187500.02, -187500.02, -187500.02, -187500.02, 0.00, 0.00, 0.00
176, -187500.02, -187500.02, 4262.79, -187500.02, -187500.02, -187500.02, -187500.02, -187500.02, 0.00, 0.00, 0.00
177, -187500.02, -187500.02, 4289.17, -187500.02, -187500.02, -187500.02, -187500.02, -187500.02, -0.01, -0.01, 1.03
178, -187500.02, -187500.02, 4287.42, -187500.02, -187500.02, -187500.02, -187500.02, -187500.02, 0.00, 0.00, 0.00
179, -187500.02, -187500.02, 4228.12, -187500.02, -187500.02, -187500.02, -187500.02, -187500.02, 0.00, 0.00, 0.00
180, -187500.02, -187500.02, 4196.45, -187500.02, -187500.02, -187500.02, -187500.02, -187500.02, 0.00, 0.00, 0.00
181, -187500.02, -187500.02, 4226.11, -187500.02, -187500.02, -187500.02, -187500.02, -187500.02, 0.00, 0.00, 0.00
182, -187500.02, -187500.02, 4247.93, -187500.02, -187500.02, -187500.02, -187500.02, -187500.02, 0.00, 0.00, 0.00
183, -187500.02, -187500.02, 4263.75, -187500.02, -187500.02, -187500.02, -187500.02, -187500.02, 0.00, 0.00, 0.00
184, -187500.02, -187500.02, 4220.66, -187500.02, -187500.02, -187500.02, -187500.02, -187500.02, 0.00, 0.00, 0.00
185, -187500.02, -187500.02, 4205.77, -187500.02, -187500.02, -187500.02, -187500.02, -187500.02, 0.00, 0.00, 0.00
186, -187500.02, -187500.02, 4323.07, -187500.02, -187500.02, -187500.02, -187500.02, -187500.02, 0.00, 0.00, 0.00
187, -187500.02, -187500.02, 4319.99, -187500.02, -187500.02, -187500.02, -187500.02, -187500.02, 0.00, 0.00, 0.00
188, -187500.02, -187500.02, 4273.23, -187500.02, -187500.02, -187500.02, -187500.02, -187500.02, -0.01, -0.00, 1.04
189, -187500.02, -187500.02, 4305.06, -187500.02, -187500.02, -187500.02, -187500.02, -187500.02, 0.00, 0.00, 0.00
190, -187500.02, -187500.02, 4301.91, -187500.02, -187500.02, -187500.02, -187500.02, -187500.02, 0.00, 0.00, 0.00
191, -187500.02, -187500.02, 4264.06, -187500.02, -187500.02, -187500.02, -187500.02, -187500.02, 0.00, 0.00, 0.00
192, -187500.02, -187500.02, 4257.74, -187500.02, -187500.02, -187500.02, -187500.02, -187500.02, 0.00, 0.00, 0.00
193, -187500.02, -187500.02, 4255.84, -187500.02, -187500.02, -187500.02, -187500.02, -187500.02, 0.00, 0.00, 0.00
194, -187500.02, -187500.02, 4299.85, -187500.02, -187500.02, -187500.02, -187500.02, -187500.02, 0.00, 0.00, 0.00
195, -187500.02, -187500.02, 4287.53, -187500.02, -187500.02, -187500.02, -187500.02, -187500.02, 0.00, 0.00, 0.00
196, -187500.02, -187500.02, 4216.08, -187500.02, -187500.02, -187500.02, -187500.02, -187500.02, 0.00, 0.00, 0.00
197, -187500.02, -187500.02, 4174.01, -187500.02, -187500.02, -187500.02, -187500.02, -187500.02, 0.00, 0.00, 0.00
198, -187500.02, -187500.02, 4208.12, -187500.02, -187500.02, -187500.02, -187500.02, -187500.02, -0.01, 0.00, 1.03
199, -187500.02, -187500.02, 4302.17, -187500.02, -187500.02, -187500.02, -187500.02, -187500.02, 0.00, 0.00, 0.00
200, -187500.02, -187500.02, 4276.13, -187500.02, -187500.02, -187500.02, -187500.02, -187500.02, 0.00, 0.00, 0.00
201, -187500.02, -187500.02, 4305.53, -187500.02, -187500.02, -187500.02, -187500.02, -187500.02, 0.00, 0.00, 0.00
202, -187500.02, -187500.02, 4257.07, -187500.02, -187500.02, -187500.02, -187500.02, -187500.02, 0.00, 0.00, 0.00
203, -187500.02, -187500.02, 4273.94, -187500.02, -187500.02, -187500.02, -187500.02, -187500.02, 0.00, 0.00, 0.00
204, -187500.02, -187500.02, 4276.16, -187500.02, -187500.02, -187500.02, -187500.02, -187500.02, 0.00, 0.00, 0.00
205, -187500.02, -187500.02, 4281.28, -187500.02, -187500.02, -187500.02, -187500.02, -187500.02, 0.00, 0.00, 0.00
206, -187500.02, -187500.02, 4250.54, -187500.02, -187500.02, -187500.02, -187500.02, -187500.02, 0.00, 0.00, 0.00
207, -187500.02, -187500.02, 4172.74, -187500.02, -187500.02, -187500.02, -187500.02, -187500.02, 0.00, 0.00, 0.00
208, -187500.02, -187500.02, 4161.25, -187500.02, -187500.02, -187500.02, -187500.02, -187500.02, -0.01, 0.00, 1.03
209, -187500.02, -187500.02, 4238.20, -187500.02, -187500.02, -187500.02, -187500.02, -187500.02, 0.00, 0.00, 0.00
210, -187500.02, -187500.02, 4319.34, -187500.02, -187500.02, -187500.02, -187500.02, -187500.02, 0.00, 0.00, 0.00
211, -187500.02, -187500.02, 4360.62, -187500.02, -187500.02, -187500.02, -187500.02, -187500.02, 0.00, 0.00, 0.00
212, -187500.02, -187500.02, 4287.06, -187500.02, -187500.02, -187500.02, -187500.02, -187500.02, 0.00, 0.00, 0.00
213, -187500.02, -187500.02, 4247.26, -187500.02, -187500.02, -187500.02, -187500.02, -187500.02, 0.00, 0.00, 0.00
214, -187500.02, -187500.02, 4263.01, -187500.02, -187500.02, -187500.02, -187500.02, -187500.02, 0.00, 0.00, 0.00
215, -187500.02, -187500.02, 4247.70, -187500.02, -187500.02, -187500.02, -187500.02, -187500.02, 0.00, 0.00, 0.00
216, -187500.02, -187500.02, 4232.17, -187500.02, -187500.02, -187500.02, -187500.02, -187500.02, 0.00, 0.00, 0.00
217, -187500.02, -187500.02, 4237.64, -187500.02, -187500.02, -187500.02, -187500.02, -187500.02, 0.00, 0.00, 0.00
218, -187500.02, -187500.02, 4277.43, -187500.02, -187500.02, -187500.02, -187500.02, -187500.02, -0.01, 0.00, 1.03
219, -187500.02, -187500.02, 4287.27, -187500.02, -187500.02, -187500.02, -187500.02, -187500.02, 0.00, 0.00, 0.00
220, -187500.02, -187500.02, 4254.12, -187500.02, -187500.02, -187500.02, -187500.02, -187500.02, 0.00, 0.00, 0.00
221, -187500.02, -187500.02, 4205.21, -187500.02, -187500.02, -187500.02, -187500.02, -187500.02, 0.00, 0.00, 0.00
222, -187500.02, -187500.02, 4238.14, -187500.02, -187500.02, -187500.02, -187500.02, -187500.02, 0.00, 0.00, 0.00
223, -187500.02, -187500.02, 4310.22, -187500.02, -187500.02, -187500.02, -187500.02, -187500.02, 0.00, 0.00, 0.00
224, -187500.02, -187500.02, 4301.97, -187500.02, -187500.02, -187500.02, -187500.02, -187500.02, 0.00, 0.00, 0.00
225, -187500.02, -187500.02, 4212.16, -187500.02, -187500.02, -187500.02, -187500.02, -187500.02, 0.00, 0.00, 0.00
226, -187500.02, -187500.02, 4221.28, -187500.02, -187500.02, -187500.02, -187500.02, -187500.02, 0.00, 0.00, 0.00
227, -187500.02, -187500.02, 4310.60, -187500.02, -187500.02, -187500.02, -187500.02, -187500.02, 0.00, 0.00, 0.00
228, -187500.02, -187500.02, 4304.07, -187500.02, -187500.02, -187500.02, -187500.02, -187500.02, -0.01, 0.00, 1.03
229, -187500.02, -187500.02, 4254.41, -187500.02, -187500.02, -187500.02, -187500.02, -187500.02, 0.00, 0.00, 0.00
230, -187500.02, -187500.02, 4226.96, -187500.02, -187500.02, -187500.02, -187500.02, -187500.02, 0.00, 0.00, 0.00
231, -187500.02, -187500.02, 4222.07, -187500.02, -187500.02, -187500.02, -187500.02, -187500.02, 0.00, 0.00, 0.00
232, -187500.02, -187500.02, 4251.48, -187500.02, -187500.02, -187500.02, -187500.02, -187500.02, 0.00, 0.00, 0.00
233, -187500.02, -187500.02, 4280.09, -187500.02, -187500.02, -187500.02, -187500.02, -187500.02, 0.00, 0.00, 0.00
234, -187500.02, -187500.02, 4227.72, -187500.02, -187500.02, -187500.02, -187500.02, -187500.02, 0.00, 0.00, 0.00
235, -187500.02, -187500.02, 4252.49, -187500.02, -187500.02, -187500.02, -187500.02, -187500.02, 0.00, 0.00, 0.00
236, -187500.02, -187500.02, 4271.17, -187500.02, -187500.02, -187500.02, -187500.02, -187500.02, 0.00, 0.00, 0.00
237, -187500.02, -187500.02, 4261.27, -187500.02, -187500.02, -187500.02, -187500.02, -187500.02, 0.00, 0.00, 0.00
238, -187500.02, -187500.02, 4174.99, -187500.02, -187500.02, -187500.02, -187500.02, -187500.02, -0.01, -0.00, 1.03
239, -187500.02, -187500.02, 4181.54, -187500.02, -187500.02, -187500.02, -187500.02, -187500.02, 0.00, 0.00, 0.00
240, -187500.02, -187500.02, 4336.51, -187500.02, -187500.02, -187500.02, -187500.02, -187500.02, 0.00, 0.00, 0.00
241, -187500.02, -187500.02, 4312.90, -187500.02, -187500.02, -187500.02, -187500.02, -187500.02, 0.00, 0.00, 0.00
242, -187500.02, -187500.02, 4252.29, -187500.02, -187500.02, -187500.02, -187500.02, -187500.02, 0.00, 0.00, 0.00
243, -187500.02, -187500.02, 4242.09, -187500.02, -187500.02, -187500.02, -187500.02, -187500.02, 0.00, 0.00, 0.00
244, -187500.02, -187500.02, 4275.80, -187500.02, -187500.02, -187500.02, -187500.02, -187500.02, 0.00, 0.00, 0.00
245, -187500.02, -187500.02, 4269.99, -187500.02, -187500.02, -187500.02, -187500.02, -187500.02, 0.00, 0.00, 0.00
246, -187500.02, -187500.02, 4219.14, -187500.02, -187500.02, -187500.02, -187500.02, -187500.02, 0.00, 0.00, 0.00
247, -187500.02, -187500.02, 4197.97, -187500.02, -187500.02, -187500.02, -187500.02, -187500.02, 0.00, 0.00, 0.00
248, -187500.02, -187500.02, 4258.30, -187500.02, -187500.02, -187500.02, -187500.02, -187500.02, -0.01, 0.00, 1.03
249, -187500.02, -187500.02, 4306.89, -187500.02, -187500.02, -187500.02, -187500.02, -187500.02, 0.00, 0.00, 0.00
250, -187500.02, -187500.02, 4219.70, -187500.02, -187500.02, -187500.02, -187500.02, -187500.02, 0.00, 0.00, 0.00
251, -187500.02, -187500.02, 4181.47, -187500.02, -187500.02, -187500.02, -187500.02, -187500.02, 0.00, 0.00, 0.00
252, -187500.02, -187500.02, 4191.87, -187500.02, -187500.02, -187500.02, -187500.02, -187500.02, 0.00, 0.00, 0.00
253, -187500.02, -187500.02, 4084.40, -187500.02, -187500.02, -187500.02, -187500.02, -187500.02, 0.00, 0.00, 0.00
254, -187500.02, -187500.02, 4211.49, -187500.02, -187500.02, -187500.02, -187500.02, -187500.02, 0.00, 0.00, 0.00
255, -187500.02, -187500.02, 4426.14, -187500.02, -187500.02, -187500.02, -187500.02, -187500.02, 0.00, 0.00, 0.00
0, -187500.02, -187500.02, 4350.23, -187500.02, -187500.02, -187500.02, -187500.02, -187500.02, 0.00, 0.00, 0.00
1, -187500.02, -187500.02, 4339.10, -187500.02, -187500.02, -187500.02, -187500.02, -187500.02, 0.00, 0.00, 0.00
2, -187500.02, -187500.02, 4293.68, -187500.02, -187500.02, -187500.02, -187500.02, -187500.02, 0.00, 0.00, 0.00
3, -187500.02, -187500.02, 4254.65, -187500.02, -187500.02, -187500.02, -187500.02, -187500.02, -0.01, 0.00, 1.03
4, -187500.02, -187500.02, 4257.81, -187500.02, -187500.02, -187500.02, -187500.02, -187500.02, 0.00, 0.00, 0.00
5, -187500.02, -187500.02, 4266.86, -187500.02, -187500.02, -187500.02, -187500.02, -187500.02, 0.00, 0.00, 0.00
6, -187500.02, -187500.02, 4247.30, -187500.02, -187500.02, -187500.02, -187500.02, -187500.02, 0.00, 0.00, 0.00
7, -187500.02, -187500.02, 4224.61, -187500.02, -187500.02, -187500.02, -187500.02, -187500.02, 0.00, 0.00, 0.00
8, -187500.02, -187500.02, 4242.50, -187500.02, -187500.02, -187500.02, -187500.02, -187500.02, 0.00, 0.00, 0.00
9, -187500.02, -187500.02, 4280.65, -187500.02, -187500.02, -187500.02, -187500.02, -187500.02, 0.00, 0.00, 0.00
10, -187500.02, -187500.02, 4287.31, -187500.02, -187500.02, -187500.02, -187500.02, -187500.02, 0.00, 0.00, 0.00
11, -187500.02, -187500.02, 4243.39, -187500.02, -187500.02, -187500.02, -187500.02, -187500.02, 0.00, 0.00, 0.00
12, -187500.02, -187500.02, 4241.33, -187500.02, -187500.02, -187500.02, -187500.02, -187500.02, 0.00, 0.00, 0.00
13, -187500.02, -187500.02, 4253.76, -187500.02, -187500.02, -187500.02, -187500.02, -187500.02, -0.01, 0.00, 1.03
14, -187500.02, -187500.02, 4242.81, -187500.02, -187500.02, -187500.02, -187500.02, -187500.02, 0.00, 0.00, 0.00
15, -187500.02, -187500.02, 4213.82, -187500.02, -187500.02, -187500.02, -187500.02, -187500.02, 0.00, 0.00, 0.00
16, -187500.02, -187500.02, 4244.10, -187500.02, -187500.02, -187500.02, -187500.02, -187500.02, 0.00, 0.00, 0.00
17, -187500.02, -187500.02, 4244.22, -187500.02, -187500.02, -187500.02, -187500.02, -187500.02, 0.00, 0.00, 0.00
18, -187500.02, -187500.02, 4285.70, -187500.02, -187500.02, -187500.02, -187500.02, -187500.02, 0.00, 0.00, 0.00
19, -187500.02, -187500.02, 4261.09, -187500.02, -187500.02, -187500.02, -187500.02, -187500.02, 0.00, 0.00, 0.00
20, -187500.02, -187500.02, 4236.19, -187500.02, -187500.02, -187500.02, -187500.02, -187500.02, 0.00, 0.00, 0.00
21, -187500.02, -187500.02, 4257.58, -187500.02, -187500.02, -187500.02, -187500.02, -187500.02, 0.00, 0.00, 0.00
22, -187500.02, -187500.02, 4257.96, -187500.02, -187500.02, -187500.02, -187500.02, -187500.02, 0.00, 0.00, 0.00
23, -187500.02, -187500.02, 4198.19, -187500.02, -187500.02, -187500.02, -187500.02, -187500.02, -0.01, -0.00, 1.04
24, -187500.02, -187500.02, 4183.93, -187500.02, -187500.02, -187500.02, -187500.02, -187500.02, 0.00, 0.00, 0.00
25, -187500.02, -187500.02, 4213.08, -187500.02, -187500.02, -187500.02, -187500.02, -187500.02, 0.00, 0.00, 0.00
26, -187500.02, -187500.02, 4260.89, -187500.02, -187500.02, -187500.02, -187500.02, -187500.02, 0.00, 0.00, 0.00
27, -187500.02, -187500.02, 4235.43, -187500.02, -187500.02, -187500.02, -187500.02, -187500.02, 0.00, 0.00, 0.00
28, -187500.02, -187500.02, 4242.96, -187500.02, -187500.02, -187500.02, -187500.02, -187500.02, 0.00, 0.00, 0.00
29, -187500.02, -187500.02, 4300.30, -187500.02, -187500.02, -187500.02, -187500.02, -187500.02, 0.00, 0.00, 0.00
30, -187500.02, -187500.02, 4338.05, -187500.02, -187500.02, -187500.02, -187500.02, -187500.02, 0.00, 0.00, 0.00
31, -187500.02, -187500.02, 4296.01, -187500.02, -187500.02, -187500.02, -187500.02, -187500.02, 0.00, 0.00, 0.00
32, -187500.02, -187500.02, 4239.97, -187500.02, -187500.02, -187500.02, -187500.02, -187500.02, 0.00, 0.00, 0.00
33, -187500.02, -187500.02, 4234.85, -187500.02, -187500.02, -187500.02, -187500.02, -187500.02, -0.01, -0.00, 1.03
34, -187500.02, -187500.02, 4272.51, -187500.02, -187500.02, -187500.02, -187500.02, -187500.02, 0.00, 0.00, 0.00
35, -187500.02, -187500.02, 4299.29, -187500.02, -187500.02, -187500.02, -187500.02, -187500.02, 0.00, 0.00, 0.00
36, -187500.02, -187500.02, 4224.08, -187500.02, -187500.02, -187500.02, -187500.02, -187500.02, 0.00, 0.00, 0.00
37, -187500.02, -187500.02, 4226.76, -187500.02, -187500.02, -187500.02, -187500.02, -187500.02, 0.00, 0.00, 0.00
38, -187500.02, -187500.02, 4268.78, -187500.02, -187500.02, -187500.02, -187500.02, -187500.02, 0.00, 0.00, 0.00
39, -187500.02, -187500.02, 4267.28, -187500.02, -187500.02, -187500.02, -187500.02, -187500.02, 0.00, 0.00, 0.00
40, -187500.02, -187500.02, 4220.48, -187500.02, -187500.02, -187500.02, -187500.02, -187500.02, 0.00, 0.00, 0.00
41, -187500.02, -187500.02, 4220.21, -187500.02, -187500.02, -187500.02, -187500.02, -187500.02, 0.00, 0.00, 0.00
42, -187500.02, -187500.02, 4227.50, -187500.02, -187500.02, -187500.02, -187500.02, -187500.02, 0.00, 0.00, 0.00
43, -187500.02, -187500.02, 4247.14, -187500.02, -187500.02, -187500.02, -187500.02, -187500.02, -0.01, 0.00, 1.03
44, -187500.02, -187500.02, 4239.75, -187500.02, -187500.02, -187500.02, -187500.02, -187500.02, 0.00, 0.00, 0.00
45, -187500.02, -187500.02, 4266.37, -187500.02, -187500.02, -187500.02, -187500.02, -187500.02, 0.00, 0.00, 0.00
46, -187500.02, -187500.02, 4282.82, -187500.02, -187500.02, -187500.02, -187500.02, -187500.02, 0.00, 0.00, 0.00
47, -187500.02, -187500.02, 4289.10, -187500.02, -187500.02, -187500.02, -187500.02, -187500.02, 0.00, 0.00, 0.00
48, -187500.02, -187500.02, 4218.47, -187500.02, -187500.02, -187500.02, -187500.02, -187500.02, 0.00, 0.00, 0.00
49, -187500.02, -187500.02, 4151.61, -187500.02, -187500.02, -187500.02, -187500.02, -187500.02, 0.00, 0.00, 0.00
50, -187500.02, -187500.02, 4209.30, -187500.02, -187500.02, -187500.02, -187500.02, -187500.02, 0.00, 0.00, 0.00
51, -187500.02, -187500.02, 4306.09, -187500.02, -187500.02, -187500.02, -187500.02, -187500.02, 0.00, 0.00, 0.00
52, -187500.02, -187500.02, 4319.83, -187500.02, -187500.02, -187500.02, -187500.02, -187500.02, 0.00, 0.00, 0.00
53, -187500.02, -187500.02, 4243.10, -187500.02, -187500.02, -187500.02, -187500.02, -187500.02, -0.01, 0.00, 1.03
54, -187500.02, -187500.02, 4259.44, -187500.02, -187500.02, -187500.02, -187500.02, -187500.02, 0.00, 0.00, 0.00
55, -187500.02, -187500.02, 4278.75, -187500.02, -187500.02, -187500.02, -187500.02, -187500.02, 0.00, 0.00, 0.00
56, -187500.02, -187500.02, 4254.14, -187500.02, -187500.02, -187500.02, -187500.02, -187500.02, 0.00, 0.00, 0.00
57, -187500.02, -187500.02, 4192.05, -187500.02, -187500.02, -187500.02, -187500.02, -187500.02, 0.00, 0.00, 0.00
58, -187500.02, -187500.02, 4194.10, -187500.02, -187500.02, -187500.02, -187500.02, -187500.02, 0.00, 0.00, 0.00
59, -187500.02, -187500.02, 4253.60, -187500.02, -187500.02, -187500.02, -187500.02, -187500.02, 0.00, 0.00, 0.00
60, -187500.02, -187500.02, 4251.03, -187500.02, -187500.02, -187500.02, -187500.02, -187500.02, 0.00, 0.00, 0.00
61, -187500.02, -187500.02, 4238.14, -187500.02, -187500.02, -187500.02, -187500.02, -187500.02, 0.00, 0.00, 0.00
62, -187500.02, -187500.02, 4278.15, -187500.02, -187500.02, -187500.02, -187500.02, -187500.02, 0.00, 0.00, 0.00
63, -187500.02, -187500.02, 4289.12, -187500.02, -187500.02, -187500.02, -187500.02, -187500.02, 0.00, 0.00, 0.00
64, -187500.02, -187500.02, 4257.14, -187500.02, -187500.02, -187500.02, -187500.02, -187500.02, -0.01, -0.00, 1.03
65, -187500.02, -187500.02, 4230.63, -187500.02, -187500.02, -187500.02, -187500.02, -187500.02, 0.00, 0.00, 0.00
66, -187500.02, -187500.02, 4222.60, -187500.02, -187500.02, -187500.02, -187500.02, -187500.02, 0.00, 0.00, 0.00
67, -187500.02, -187500.02, 4241.13, -187500.02, -187500.02, -187500.02, -187500.02, -187500.02, 0.00, 0.00, 0.00
68, -187500.02, -187500.02, 4312.43, -187500.02, -187500.02, -187500.02, -187500.02, -187500.02, 0.00, 0.00, 0.00
69, -187500.02, -187500.02, 4279.64, -187500.02, -187500.02, -187500.02, -187500.02, -187500.02, 0.00, 0.00, 0.00
70, -187500.02, -187500.02, 4238.29, -187500.02, -187500.02, -187500.02, -187500.02, -187500.02, 0.00, 0.00, 0.00
71, -187500.02, -187500.02, 4285.46, -187500.02, -187500.02, -187500.02, -187500.02, -187500.02, 0.00, 0.00, 0.00
72, -187500.02, -187500.02, 4285.68, -187500.02, -187500.02, -187500.02, -187500.02, -187500.02, 0.00, 0.00, 0.00
73, -187500.02, -187500.02, 4252.11, -187500.02, -187500.02, -187500.02, -187500.02, -187500.02, 0.00, 0.00, 0.00
74, -187500.02, -187500.02, 4224.84, -187500.02, -187500.02, -187500.02, -187500.02, -187500.02, -0.01, -0.00, 1.03
75, -187500.02, -187500.02, 4215.70, -187500.02, -187500.02, -187500.02, -187500.02, -187500.02, 0.00, 0.00, 0.00
76, -187500.02, -187500.02, 4231.72, -187500.02, -187500.02, -187500.02, -187500.02, -187500.02, 0.00, 0.00, 0.00
77, -187500.02, -187500.02, 4261.76, -187500.02, -187500.02, -187500.02, -187500.02, -187500.02, 0.00, 0.00, 0.00
78, -187500.02, -187500.02, 4221.44, -187500.02, -187500.02, -187500.02, -187500.02, -187500.02, 0.00, 0.00, 0.00
79, -187500.02, -187500.02, 4218.89, -187500.02, -187500.02, -187500.02, -187500.02, -187500.02, 0.00, 0.00, 0.00
80, -187500.02, -187500.02, 4268.11, -187500.02, -187500.02, -187500.02, -187500.02, -187500.02, 0.00, 0.00, 0.00
81, -187500.02, -187500.02, 4278.50, -187500.02, -187500.02, -187500.02, -187500.02, -187500.02, 0.00, 0.00, 0.00
82, -187500.02, -187500.02, 4213.17, -187500.02, -187500.02, -187500.02, -187500.02, -187500.02, 0.00, 0.00, 0.00
83, -187500.02, -187500.02, 4204.23, -187500.02, -187500.02, -187500.02, -187500.02, -187500.02, 0.00, 0.00, 0.00
84, -187500.02, -187500.02, 4263.44, -187500.02, -187500.02, -187500.02, -187500.02, -187500.02, -0.01, -0.00, 1.02
85, -187500.02, -187500.02, 4247.77, -187500.02, -187500.02, -187500.02, -187500.02, -187500.02, 0.00, 0.00, 0.00
86, -187500.02, -187500.02, 4275.58, -187500.02, -187500.02, -187500.02, -187500.02, -187500.02, 0.00, 0.00, 0.00
87, -187500.02, -187500.02, 4275.29, -187500.02, -187500.02, -187500.02, -187500.02, -187500.02, 0.00, 0.00, 0.00
88, -187500.02, -187500.02, 4264.89, -187500.02, -187500.02, -187500.02, -187500.02, -187500.02, 0.00, 0.00, 0.00
89, -187500.02, -187500.02, 4269.72, -187500.02, -187500.02, -187500.02, -187500.02, -187500.02, 0.00, 0.00, 0.00
90, -187500.02, -187500.02, 4238.78, -187500.02, -187500.02, -187500.02, -187500.02, -187500.02, 0.00, 0.00, 0.00
91, -187500.02, -187500.02, 4241.49, -187500.02, -187500.02, -187500.02, -187500.02, -187500.02, 0.00, 0.00, 0.00
92, -187500.02, -187500.02, 4269.41, -187500.02, -187500.02, -187500.02, -187500.02, -187500.02, 0.00, 0.00, 0.00
93, -187500.02, -187500.02, 4279.51, -187500.02, -187500.02, -187500.02, -187500.02, -187500.02, 0.00, 0.00, 0.00
94, -187500.02, -187500.02, 4241.20, -187500.02, -187500.02, -187500.02, -187500.02, -187500.02, -0.01, -0.00, 1.03
95, -187500.02, -187500.02, 4215.18, -187500.02, -187500.02, -187500.02, -187500.02, -187500.02, 0.00, 0.00, 0.00
96, -187500.02, -187500.02, 4232.64, -187500.02, -187500.02, -187500.02, -187500.02, -187500.02, 0.00, 0.00, 0.00
97, -187500.02, -187500.02, 4251.95, -187500.02, -187500.02, -187500.02, -187500.02, -187500.02, 0.00, 0.00, 0.00
98, -187500.02, -187500.02, 4244.62, -187500.02, -187500.02, -187500.02, -187500.02, -187500.02, 0.00, 0.00, 0.00
99, -187500.02, -187500.02, 4235.05, -187500.02, -187500.02, -187500.02, -187500.02, -187500.02, 0.00, 0.00, 0.00
100, -187500.02, -187500.02, 4246.45, -187500.02, -187500.02, -187500.02, -187500.02, -187500.02, 0.00, 0.00, 0.00
101, -187500.02, -187500.02, 4271.82, -187500.02, -187500.02, -187500.02, -187500.02, -187500.02, 0.00, 0.00, 0.00
102, -187500.02, -187500.02, 4241.71, -187500.02, -187500.02, -187500.02, -187500.02, -187500.02, 0.00, 0.00, 0.00
103, -187500.02, -187500.02, 4183.31, -187500.02, -187500.02, -187500.02, -187500.02, -187500.02, 0.00, 0.00, 0.00
104, -187500.02, -187500.02, 4164.62, -187500.02, -187500.02, -187500.02, -187500.02, -187500.02, -0.01, -0.01, 1.03
105, -187500.02, -187500.02, 4239.66, -187500.02, -187500.02, -187500.02, -187500.02, -187500.02, 0.00, 0.00, 0.00
106, -187500.02, -187500.02, 4278.19, -187500.02, -187500.02, -187500.02, -187500.02, -187500.02, 0.00, 0.00, 0.00
107, -187500.02, -187500.02, 4251.08, -187500.02, -187500.02, -187500.02, -187500.02, -187500.02, 0.00, 0.00, 0.00
108, -187500.02, -187500.02, 4244.60, -187500.02, -187500.02, -187500.02, -187500.02, -187500.02, 0.00, 0.00, 0.00
109, -187500.02, -187500.02, 4222.98, -187500.02, -187500.02, -187500.02, -187500.02, -187500.02, 0.00, 0.00, 0.00
110, -187500.02, -187500.02, 4244.37, -187500.02, -187500.02, -187500.02, -187500.02, -187500.02, 0.00, 0.00, 0.00
111, -187500.02, -187500.02, 4261.94, -187500.02, -187500.02, -187500.02, -187500.02, -187500.02, 0.00, 0.00, 0.00
112, -187500.02, -187500.02, 4255.19, -187500.02, -187500.02, -187500.02, -187500.02, -187500.02, 0.00, 0.00, 0.00
113, -187500.02, -187500.02, 4228.26, -187500.02, -187500.02, -187500.02, -187500.02, -187500.02, 0.00, 0.00, 0.00
114, -187500.02, -187500.02, 4227.81, -187500.02, -187500.02, -187500.02, -187500.02, -187500.02, -0.01, -0.01, 1.03
115, -187500.02, -187500.02, 4208.30, -187500.02, -187500.02, -187500.02, -187500.02, -187500.02, 0.00, 0.00, 0.00
116, -187500.02, -187500.02, 4222.11, -187500.02, -187500.02, -187500.02, -187500.02, -187500.02, 0.00, 0.00, 0.00
117, -187500.02, -187500.02, 4292.72, -187500.02, -187500.02, -187500.02, -187500.02, -187500.02, 0.00, 0.00, 0.00
118, -187500.02, -187500.02, 4307.29, -187500.02, -187500.02, -187500.02, -187500.02, -187500.02, 0.00, 0.00, 0.00
119, -187500.02, -187500.02, 4251.12, -187500.02, -187500.02, -187500.02, -187500.02, -187500.02, 0.00, 0.00, 0.00
120, -187500.02, -187500.02, 4213.68, -187500.02, -187500.02, -187500.02, -187500.02, -187500.02, 0.00, 0.00, 0.00
121, -187500.02, -187500.02, 4213.33, -187500.02, -187500.02, -187500.02, -187500.02, -187500.02, 0.00, 0.00, 0.00
122, -187500.02, -187500.02, 4241.00, -187500.02, -187500.02, -187500.02, -187500.02, -187500.02, 0.00, 0.00, 0.00
123, -187500.02, -187500.02, 4276.96, -187500.02, -187500.02, -187500.02, -187500.02, -187500.02, 0.00, 0.00, 0.00
124, -187500.02, -187500.02, 4247.03, -187500.02, -187500.02, -187500.02, -187500.02, -187500.02, 0.00, 0.00, 0.00
125, -187500.02, -187500.02, 4236.06, -187500.02, -187500.02, -187500.02, -187500.02, -187500.02, -0.01, 0.00, 1.03
126, -187500.02, -187500.02, 4258.41, -187500.02, -187500.02, -187500.02, -187500.02, -187500.02, 0.00, 0.00, 0.00
127, -187500.02, -187500.02, 4224.46, -187500.02, -187500.02, -187500.02, -187500.02, -187500.02, 0.00, 0.00, 0.00
128, -187500.02, -187500.02, 4185.39, -187500.02, -187500.02, -187500.02, -187500.02, -187500.02, 0.00, 0.00, 0.00
129, -187500.02, -187500.02, 4235.86, -187500.02, -187500.02, -187500.02, -187500.02, -187500.02, 0.00, 0.00, 0.00
130, -187500.02, -187500.02, 4282.06, -187500.02, -187500.02, -187500.02, -187500.02, -187500.02, 0.00, 0.00, 0.00
131, -187500.02, -187500.02, 4253.38, -187500.02, -187500.02, -187500.02, -187500.02, -187500.02, 0.00, 0.00, 0.00
132, -187500.02, -187500.02, 4203.98, -187500.02, -187500.02, -187500.02, -187500.02, -187500.02, 0.00, 0.00, 0.00
133, -187500.02, -187500.02, 4208.92, -187500.02, -187500.02, -187500.02, -187500.02, -187500.02, 0.00, 0.00, 0.00
134, -187500.02, -187500.02, 4233.80, -187500.02, -187500.02, -187500.02, -187500.02, -187500.02, 0.00, 0.00, 0.00
135, -187500.02, -187500.02, 4250.45, -187500.02, -187500.02, -187500.02, -187500.02, -187500.02, -0.01, -0.00, 1.03
136, -187500.02, -187500.02, 4239.70, -187500.02, -187500.02, -187500.02, -187500.02, -187500.02, 0.00, 0.00, 0.00
137, -187500.02, -187500.02, 4210.46, -187500.02, -187500.02, -187500.02, -187500.02, -187500.02, 0.00, 0.00, 0.00
138, -187500.02, -187500.02, 4212.90, -187500.02, -187500.02, -187500.02, -187500.02, -187500.02, 0.00, 0.00, 0.00
139, -187500.02, -187500.02, 4237.80, -187500.02, -187500.02, -187500.02, -187500.02, -187500.02, 0.00, 0.00, 0.00
140, -187500.02, -187500.02, 4199.40, -187500.02, -187500.02, -187500.02, -187500.02, -187500.02, 0.00, 0.00, 0.00
141, -187500.02, -187500.02, 4239.92, -187500.02, -187500.02, -187500.02, -187500.02, -187500.02, 0.00, 0.00, 0.00
142, -187500.02, -187500.02, 4248.42, -187500.02, -187500.02, -187500.02, -187500.02, -187500.02, 0.00, 0.00, 0.00
143, -187500.02, -187500.02, 4312.99, -187500.02, -187500.02, -187500.02, -187500.02, -187500.02, 0.00, 0.00, 0.00
144, -187500.02, -187500.02, 4260.47, -187500.02, -187500.02, -187500.02, -187500.02, -187500.02, 0.00, 0.00, 0.00
145, -187500.02, -187500.02, 4224.21, -187500.02, -187500.02, -187500.02, -187500.02, -187500.02, -0.01, -0.01, 1.03
146, -187500.02, -187500.02, 4244.66, -187500.02, -187500.02, -187500.02, -187500.02, -187500.02, 0.00, 0.00, 0.00
147, -187500.02, -187500.02, 4260.22, -187500.02, -187500.02, -187500.02, -187500.02, -187500.02, 0.00, 0.00, 0.00
148, -187500.02, -187500.02, 4257.56, -187500.02, -187500.02, -187500.02, -187500.02, -187500.02, 0.00, 0.00, 0.00
149, -187500.02, -187500.02, 4228.28, -187500.02, -187500.02, -187500.02, -187500.02, -187500.02, 0.00, 0.00, 0.00
150, -187500.02, -187500.02, 4235.14, -187500.02, -187500.02, -187500.02, -187500.02, -187500.02, 0.00, 0.00, 0.00
151, -187500.02, -187500.02, 4267.60, -187500.02, -187500.02, -187500.02, -187500.02, -187500.02, 0.00, 0.00, 0.00
152, -187500.02, -187500.02, 4249.36, -187500.02, -187500.02, -187500.02, -187500.02, -187500.02, 0.00, 0.00, 0.00
153, -187500.02, -187500.02, 4190.68, -187500.02, -187500.02, -187500.02, -187500.02, -187500.02, 0.00, 0.00, 0.00
154, -187500.02, -187500.02, 4183.89, -187500.02, -187500.02, -187500.02, -187500.02, -187500.02, 0.00, 0.00, 0.00
155, -187500.02, -187500.02, 4247.97, -187500.02, -187500.02, -187500.02, -187500.02, -187500.02, -0.01, -0.01, 1.03
156, -187500.02, -187500.02, 4286.17, -187500.02, -187500.02, -187500.02, -187500.02, -187500.02, 0.00, 0.00, 0.00
157, -187500.02, -187500.02, 4222.87, -187500.02, -187500.02, -187500.02, -187500.02, -187500.02, 0.00, 0.00, 0.00
158, -187500.02, -187500.02, 4203.87, -187500.02, -187500.02, -187500.02, -187500.02, -187500.02, 0.00, 0.00, 0.00
159, -187500.02, -187500.02, 4231.59, -187500.02, -187500.02, -187500.02, -187500.02, -187500.02, 0.00, 0.00, 0.00
160, -187500.02, -187500.02, 4248.13, -187500.02, -187500.02, -187500.02, -187500.02, -187500.02, 0.00, 0.00, 0.00
161, -187500.02, -187500.02, 4232.97, -187500.02, -187500.02, -187500.02, -187500.02, -187500.02, 0.00, 0.00, 0.00
162, -187500.02, -187500.02, 4223.09, -187500.02, -187500.02, -187500.02, -187500.02, -187500.02, 0.00, 0.00, 0.00
163, -187500.02, -187500.02, 4261.05, -187500.02, -187500.02, -187500.02, -187500.02, -187500.02, 0.00, 0.00, 0.00
164, -187500.02, -187500.02, 4268.09, -187500.02, -187500.02, -187500.02, -187500.02, -187500.02, 0.00, 0.00, 0.00
165, -187500.02, -187500.02, 4223.05, -187500.02, -187500.02, -187500.02, -187500.02, -187500.02, -0.01, -0.01, 1.03
166, -187500.02, -187500.02, 4221.02, -187500.02, -187500.02, -187500.02, -187500.02, -187500.02, 0.00, 0.00, 0.00
167, -187500.02, -187500.02, 4246.21, -187500.02, -187500.02, -187500.02, -187500.02, -187500.02, 0.00, 0.00, 0.00
168, -187500.02, -187500.02, 4275.69, -187500.02, -187500.02, -187500.02, -187500.02, -187500.02, 0.00, 0.00, 0.00
169, -187500.02, -187500.02, 4230.47, -187500.02, -187500.02, -187500.02, -187500.02, -187500.02, 0.00, 0.00, 0.00
170, -187500.02, -187500.02, 4209.17, -187500.02, -187500.02, -187500.02, -187500.02, -187500.02, 0.00, 0.00, 0.00
171, -187500.02, -187500.02, 4222.94, -187500.02, -187500.02, -187500.02, -187500.02, -187500.02, 0.00, 0.00, 0.00
172, -187500.02, -187500.02, 4245.13, -187500.02, -187500.02, -187500.02, -187500.02, -187500.02, 0.00, 0.00, 0.00
173, -187500.02, -187500.02, 4210.46, -187500.02, -187500.02, -187500.02, -187500.02, -187500.02, 0.00, 0.00, 0.00
174, -187500.02, -187500.02, 4176.96, -187500.02, -187500.02, -187500.02, -187500.02, -187500.02, 0.00, 0.00, 0.00
175, -187500.02, -187500.02, 4230.65, -187500.02, -187500.02, -187500.02, -187500.02, -187500.02, -0.01, -0.01, 1.03
176, -187500.02, -187500.02, 4318.65, -187500.02, -187500.02, -187500.02, -187500.02, -187500.02, 0.00, 0.00, 0.00
177, -187500.02, -187500.02, 4265.79, -187500.02, -187500.02, -187500.02, -187500.02, -187500.02, 0.00, 0.00, 0.00
178, -187500.02, -187500.02, 4192.34, -187500.02, -187500.02, -187500.02, -187500.02, -187500.02, 0.00, 0.00, 0.00
179, -187500.02, -187500.02, 4157.31, -187500.02, -187500.02, -187500.02, -187500.02, -187500.02, 0.00, 0.00, 0.00
180, -187500.02, -187500.02, 4239.10, -187500.02, -187500.02, -187500.02, -187500.02, -187500.02, 0.00, 0.00, 0.00
181, -187500.02, -187500.02, 4224.35, -187500.02, -187500.02, -187500.02, -187500.02, -187500.02, 0.00, 0.00, 0.00
182, -187500.02, -187500.02, 4263.39, -187500.02, -187500.02, -187500.02, -187500.02, -187500.02, 0.00, 0.00, 0.00
183, -187500.02, -187500.02, 4314.40, -187500.02, -187500.02, -187500.02, -187500.02, -187500.02, 0.00, 0.00, 0.00
184, -187500.02, -187500.02, 4279.55, -187500.02, -187500.02, -187500.02, -187500.02, -187500.02, 0.00, 0.00, 0.00
185, -187500.02, -187500.02, 4278.21, -187500.02, -187500.02, -187500.02, -187500.02, -187500.02, -0.01, -0.00, 1.02
186, -187500.02, -187500.02, 4252.91, -187500.02, -187500.02, -187500.02, -187500.02, -187500.02, 0.00, 0.00, 0.00
187, -187500.02, -187500.02, 4220.41, -187500.02, -187500.02, -187500.02, -187500.02, -187500.02, 0.00, 0.00, 0.00
188, -187500.02, -187500.02, 4246.50, -187500.02, -187500.02, -187500.02, -187500.02, -187500.02, 0.00, 0.00, 0.00
189, -187500.02, -187500.02, 4258.99, -187500.02, -187500.02, -187500.02, -187500.02, -187500.02, 0.00, 0.00, 0.00
190, -187500.02, -187500.02, 4211.27, -187500.02, -187500.02, -187500.02, -187500.02, -187500.02, 0.00, 0.00, 0.00
191, -187500.02, -187500.02, 4191.04, -187500.02, -187500.02, -187500.02, -187500.02, -187500.02, 0.00, 0.00, 0.00
192, -187500.02, -187500.02, 4269.09, -187500.02, -187500.02, -187500.02, -187500.02, -187500.02, 0.00, 0.00, 0.00
193, -187500.02, -187500.02, 4298.24, -187500.02, -187500.02, -187500.02, -187500.02, -187500.02, 0.00, 0.00, 0.00
194, -187500.02, -187500.02, 4247.95, -187500.02, -187500.02, -187500.02, -187500.02, -187500.02, 0.00, 0.00, 0.00
195, -187500.02, -187500.02, 4225.02, -187500.02, -187500.02, -187500.02, -187500.02, -187500.02, 0.00, 0.00, 0.00
196, -187500.02, -187500.02, 4226.36, -187500.02, -187500.02, -187500.02, -187500.02, -187500.02, -0.01, -0.00, 1.02
197, -187500.02, -187500.02, 4245.13, -187500.02, -187500.02, -187500.02, -187500.02, -187500.02, 0.00, 0.00, 0.00
198, -187500.02, -187500.02, 4239.97, -187500.02, -187500.02, -187500.02, -187500.02, -187500.02, 0.00, 0.00, 0.00
199, -187500.02, -187500.02, 4222.85, -187500.02, -187500.02, -187500.02, -187500.02, -187500.02, 0.00, 0.00, 0.00
200, -187500.02, -187500.02, 4232.24, -187500.02, -187500.02, -187500.02, -187500.02, -187500.02, 0.00, 0.00, 0.00
201, -187500.02, -187500.02, 4251.37, -187500.02, -187500.02, -187500.02, -187500.02, -187500.02, 0.00, 0.00, 0.00
202, -187500.02, -187500.02, 4216.37, -187500.02, -187500.02, -187500.02, -187500.02, -187500.02, 0.00, 0.00, 0.00
203, -187500.02, -187500.02, 4166.72, -187500.02, -187500.02, -187500.02, -187500.02, -187500.02, 0.00, 0.00, 0.00
204, -187500.02, -187500.02, 4248.89, -187500.02, -187500.02, -187500.02, -187500.02, -187500.02, 0.00, 0.00, 0.00
205, -187500.02, -187500.02, 4270.93, -187500.02, -187500.02, -187500.02, -187500.02, -187500.02, 0.00, 0.00, 0.00
206, -187500.02, -187500.02, 4250.45, -187500.02, -187500.02, -187500.02, -187500.02, -187500.02, -0.01, 0.00, 1.02
207, -187500.02, -187500.02, 4236.17, -187500.02, -187500.02, -187500.02, -187500.02, -187500.02, 0.00, 0.00, 0.00
208, -187500.02, -187500.02, 4250.25, -187500.02, -187500.02, -187500.02, -187500.02, -187500.02, 0.00, 0.00, 0.00
209, -187500.02, -187500.02, 4244.46, -187500.02, -187500.02, -187500.02, -187500.02, -187500.02, 0.00, 0.00, 0.00
210, -187500.02, -187500.02, 4270.70, -187500.02, -187500.02, -187500.02, -187500.02, -187500.02, 0.00, 0.00, 0.00
211, -187500.02, -187500.02, 4212.88, -187500.02, -187500.02, -187500.02, -187500.02, -187500.02, 0.00, 0.00, 0.00
212, -187500.02, -187500.02, 4203.96, -187500.02, -187500.02, -187500.02, -187500.02, -187500.02, 0.00, 0.00, 0.00
213, -187500.02, -187500.02, 4236.19, -187500.02, -187500.02, -187500.02, -187500.02, -187500.02, 0.00, 0.00, 0.00
214, -187500.02, -187500.02, 4266.17, -187500.02, -187500.02, -187500.02, -187500.02, -187500.02, 0.00, 0.00, 0.00
215, -187500.02, -187500.02, 4267.64, -187500.02, -187500.02, -187500.02, -187500.02, -187500.02, 0.00, 0.00, 0.00
216, -187500.02, -187500.02, 4233.26, -187500.02, -187500.02, -187500.02, -187500.02, -187500.02, -0.01, -0.00, 1.02
217, -187500.02, -187500.02, 4245.80, -187500.02, -187500.02, -187500.02, -187500.02, -187500.02, 0.00, 0.00, 0.00
218, -187500.02, -187500.02, 4266.14, -187500.02, -187500.02, -187500.02, -187500.02, -187500.02, 0.00, 0.00, 0.00
219, -187500.02, -187500.02, 4231.21, -187500.02, -187500.02, -187500.02, -187500.02, -187500.02, 0.00, 0.00, 0.00
220, -187500.02, -187500.02, 4204.30, -187500.02, -187500.02, -187500.02, -187500.02, -187500.02, 0.00, 0.00, 0.00
221, -187500.02, -187500.02, 4241.78, -187500.02, -187500.02, -187500.02, -187500.02, -187500.02, 0.00, 0.00, 0.00
222, -187500.02, -187500.02, 4260.67, -187500.02, -187500.02, -187500.02, -187500.02, -187500.02, 0.00, 0.00, 0.00
223, -187500.02, -187500.02, 4227.56, -187500.02, -187500.02, -187500.02, -187500.02, -187500.02, 0.00, 0.00, 0.00
224, -187500.02, -187500.02, 4168.24, -187500.02, -187500.02, -187500.02, -187500.02, -187500.02, 0.00, 0.00, 0.00
225, -187500.02, -187500.02, 4201.70, -187500.02, -187500.02, -187500.02, -187500.02, -187500.02, 0.00, 0.00, 0.00
226, -187500.02, -187500.02, 4292.76, -187500.02, -187500.02, -187500.02, -187500.02, -187500.02, -0.01, 0.00, 1.02
227, -187500.02, -187500.02, 4297.08, -187500.02, -187500.02, -187500.02, -187500.02, -187500.02, 0.00, 0.00, 0.00
228, -187500.02, -187500.02, 4248.11, -187500.02, -187500.02, -187500.02, -187500.02, -187500.02, 0.00, 0.00, 0.00
229, -187500.02, -187500.02, 4238.81, -187500.02, -187500.02, -187500.02, -187500.02, -187500.02, 0.00, 0.00, 0.00
230, -187500.02, -187500.02, 4248.53, -187500.02, -187500.02, -187500.02, -187500.02, -187500.02, 0.00, 0.00, 0.00
231, -187500.02, -187500.02, 4241.65, -187500.02, -187500.02, -187500.02, -187500.02, -187500.02, 0.00, 0.00, 0.00
232, -187500.02, -187500.02, 4181.14, -187500.02, -187500.02, -187500.02, -187500.02, -187500.02, 0.00, 0.00, 0.00
233, -187500.02, -187500.02, 4077.05, -187500.02, -187500.02, -187500.02, -187500.02, -187500.02, 0.00, 0.00, 0.00
234, -187500.02, -187500.02, 4179.40, -187500.02, -187500.02, -187500.02, -187500.02, -187500.02, 0.00, 0.00, 0.00
235, -187500.02, -187500.02, 4361.97, -187500.02, -187500.02, -187500.02, -187500.02, -187500.02, 0.00, 0.00, 0.00
236, -187500.02, -187500.02, 4311.09, -187500.02, -187500.02, -187500.02, -187500.02, -187500.02, -0.01, 0.00, 1.03
237, -187500.02, -187500.02, 4290.28, -187500.02, -187500.02, -187500.02, -187500.02, -187500.02, 0.00, 0.00, 0.00
238, -187500.02, -187500.02, 4283.24, -187500.02, -187500.02, -187500.02, -187500.02, -187500.02, 0.00, 0.00, 0.00
239, -187500.02, -187500.02, 4290.48, -187500.02, -187500.02, -187500.02, -187500.02, -187500.02, 0.00, 0.00, 0.00
240, -187500.02, -187500.02, 4253.00, -187500.02, -187500.02, -187500.02, -187500.02, -187500.02, 0.00, 0.00, 0.00
241, -187500.02, -187500.02, 4224.01, -187500.02, -187500.02, -187500.02, -187500.02, -187500.02, 0.00, 0.00, 0.00
242, -187500.02, -187500.02, 4235.10, -187500.02, -187500.02, -187500.02, -187500.02, -187500.02, 0.00, 0.00, 0.00
243, -187500.02, -187500.02, 4261.27, -187500.02, -187500.02, -187500.02, -187500.02, -187500.02, 0.00, 0.00, 0.00
244, -187500.02, -187500.02, 4234.60, -187500.02, -187500.02, -187500.02, -187500.02, -187500.02, 0.00, 0.00, 0.00
245, -187500.02, -187500.02, 4183.11, -187500.02, -187500.02, -187500.02, -187500.02, -187500.02, 0.00, 0.00, 0.00
246, -187500.02, -187500.02, 4210.33, -187500.02, -187500.02, -187500.02, -187500.02, -187500.02, -0.01, 0.01, 1.03
247, -187500.02, -187500.02, 4271.33, -187500.02, -187500.02, -187500.02, -187500.02, -187500.02, 0.00, 0.00, 0.00
248, -187500.02, -187500.02, 4236.01, -187500.02, -187500.02, -187500.02, -187500.02, -187500.02, 0.00, 0.00, 0.00
249, -187500.02, -187500.02, 4188.23, -187500.02, -187500.02, -187500.02, -187500.02, -187500.02, 0.00, 0.00, 0.00
250, -187500.02, -187500.02, 4228.77, -187500.02, -187500.02, -187500.02, -187500.02, -187500.02, 0.00, 0.00, 0.00
251, -187500.02, -187500.02, 4304.07, -187500.02, -187500.02, -187500.02, -187500.02, -187500.02, 0.00, 0.00, 0.00
252, -187500.02, -187500.02, 4285.59, -187500.02, -187500.02, -187500.02, -187500.02, -187500.02, 0.00, 0.00, 0.00
253, -187500.02, -187500.02, 4198.64, -187500.02, -187500.02, -187500.02, -187500.02, -187500.02, 0.00, 0.00, 0.00
254, -187500.02, -187500.02, 4212.63, -187500.02, -187500.02, -187500.02, -187500.02, -187500.02, 0.00, 0.00, 0.00
255, -187500.02, -187500.02, 4261.94, -187500.02, -187500.02, -187500.02, -187500.02, -187500.02, 0.00, 0.00, 0.00
0, -187500.02, -187500.02, 4259.84, -187500.02, -187500.02, -187500.02, -187500.02, -187500.02, 0.00, 0.00, 0.00
1, -187500.02, -187500.02, 4213.93, -187500.02, -187500.02, -187500.02, -187500.02, -187500.02, -0.01, 0.00, 1.04
2, -187500.02, -187500.02, 4211.94, -187500.02, -187500.02, -187500.02, -187500.02, -187500.02, 0.00, 0.00, 0.00
3, -187500.02, -187500.02, 4245.96, -187500.02, -187500.02, -187500.02, -187500.02, -187500.02, 0.00, 0.00, 0.00
4, -187500.02, -187500.02, 4284.74, -187500.02, -187500.02, -187500.02, -187500.02, -187500.02, 0.00, 0.00, 0.00
5, -187500.02, -187500.02, 4246.90, -187500.02, -187500.02, -187500.02, -187500.02, -187500.02, 0.00, 0.00, 0.00
6, -187500.02, -187500.02, 4217.44, -187500.02, -187500.02, -187500.02, -187500.02, -187500.02, 0.00, 0.00, 0.00
7, -187500.02, -187500.02, 4254.63, -187500.02, -187500.02, -187500.02, -187500.02, -187500.02, 0.00, 0.00, 0.00
8, -187500.02, -187500.02, 4272.29, -187500.02, -187500.02, -187500.02, -187500.02, -187500.02, 0.00, 0.00, 0.00
9, -187500.02, -187500.02, 4246.03, -187500.02, -187500.02, -187500.02, -187500.02, -187500.02, 0.00, 0.00, 0.00
10, -187500.02, -187500.02, 4218.24, -187500.02, -187500.02, -187500.02, -187500.02, -187500.02, 0.00, 0.00, 0.00
11, -187500.02, -187500.02, 4235.10, -187500.02, -187500.02, -187500.02, -187500.02, -187500.02, -0.01, -0.01, 1.04
12, -187500.02, -187500.02, 4258.59, -187500.02, -187500.02, -187500.02, -187500.02, -187500.02, 0.00, 0.00, 0.00
13, -187500.02, -187500.02, 4236.80, -187500.02, -187500.02, -187500.02, -187500.02, -187500.02, 0.00, 0.00, 0.00
14, -187500.02, -187500.02, 4182.93, -187500.02, -187500.02, -187500.02, -187500.02, -187500.02, 0.00, 0.00, 0.00
15, -187500.02, -187500.02, 4214.62, -187500.02, -187500.02, -187500.02, -187500.02, -187500.02, 0.00, 0.00, 0.00
16, -187500.02, -187500.02, 4243.32, -187500.02, -187500.02, -187500.02, -187500.02, -187500.02, 0.00, 0.00, 0.00
17, -187500.02, -187500.02, 4265.45, -187500.02, -187500.02, -187500.02, -187500.02, -187500.02, 0.00, 0.00, 0.00
18, -187500.02, -187500.02, 4238.72, -187500.02, -187500.02, -187500.02, -187500.02, -187500.02, 0.00, 0.00, 0.00
19, -187500.02, -187500.02, 4224.17, -187500.02, -187500.02, -187500.02, -187500.02, -187500.02, 0.00, 0.00, 0.00
20, -187500.02, -187500.02, 4247.14, -187500.02, -187500.02, -187500.02, -187500.02, -187500.02, 0.00, 0.00, 0.00
21, -187500.02, -187500.02, 4238.20, -187500.02, -187500.02, -187500.02, -187500.02, -187500.02, -0.01, -0.01, 1.03
22, -187500.02, -187500.02, 4216.81, -187500.02, -187500.02, -187500.02, -187500.02, -187500.02, 0.00, 0.00, 0.00
23, -187500.02, -187500.02, 4239.08, -187500.02, -187500.02, -187500.02, -187500.02, -187500.02, 0.00, 0.00, 0.00
24, -187500.02, -187500.02, 4213.73, -187500.02, -187500.02, -187500.02, -187500.02, -187500.02, 0.00, 0.00, 0.00
25, -187500.02, -187500.02, 4241.27, -187500.02, -187500.02, -187500.02, -187500.02, -187500.02, 0.00, 0.00, 0.00
26, -187500.02, -187500.02, 4243.21, -187500.02, -187500.02, -187500.02, -187500.02, -187500.02, 0.00, 0.00, 0.00
27, -187500.02, -187500.02, 4260.24, -187500.02, -187500.02, -187500.02, -187500.02, -187500.02, 0.00, 0.00, 0.00
28, -187500.02, -187500.02, 4275.58, -187500.02, -187500.02, -187500.02, -187500.02, -187500.02, 0.00, 0.00, 0.00
29, -187500.02, -187500.02, 4276.38, -187500.02, -187500.02, -187500.02, -187500.02, -187500.02, 0.00, 0.00, 0.00
30, -187500.02, -187500.02, 4240.26, -187500.02, -187500.02, -187500.02, -187500.02, -187500.02, 0.00, 0.00, 0.00
31, -187500.02, -187500.02, 4219.07, -187500.02, -187500.02, -187500.02, -187500.02, -187500.02, -0.01, -0.00, 1.03
32, -187500.02, -187500.02, 4239.92, -187500.02, -187500.02, -187500.02, -187500.02, -187500.02, 0.00, 0.00, 0.00
33, -187500.02, -187500.02, 4245.42, -187500.02, -187500.02, -187500.02, -187500.02, -187500.02, 0.00, 0.00, 0.00
34, -187500.02, -187500.02, 4231.77, -187500.02, -187500.02, -187500.02, -187500.02, -187500.02, 0.00, 0.00, 0.00
35, -187500.02, -187500.02, 4225.53, -187500.02, -187500.02, -187500.02, -187500.02, -187500.02, 0.00, 0.00, 0.00
36, -187500.02, -187500.02, 4220.81, -187500.02, -187500.02, -187500.02, -187500.02, -187500.02, 0.00, 0.00, 0.00
37, -187500.02, -187500.02, 4255.06, -187500.02, -187500.02, -187500.02, -187500.02, -187500.02, 0.00, 0.00, 0.00
38, -187500.02, -187500.02, 4275.96, -187500.02, -187500.02, -187500.02, -187500.02, -187500.02, 0.00, 0.00, 0.00
39, -187500.02, -187500.02, 4234.67, -187500.02, -187500.02, -187500.02, -187500.02, -187500.02, 0.00, 0.00, 0.00
40, -187500.02, -187500.02, 4217.53, -187500.02, -187500.02, -187500.02, -187500.02, -187500.02, 0.00, 0.00, 0.00
41, -187500.02, -187500.02, 4222.20, -187500.02, -187500.02, -187500.02, -187500.02, -187500.02, -0.01, 0.00, 1.03
42, -187500.02, -187500.02, 4231.81, -187500.02, -187500.02, -187500.02, -187500.02, -187500.02, 0.00, 0.00, 0.00
43, -187500.02, -187500.02, 4226.56, -187500.02, -187500.02, -187500.02, -187500.02, -187500.02, 0.00, 0.00, 0.00
44, -187500.02, -187500.02, 4234.96, -187500.02, -187500.02, -187500.02, -187500.02, -187500.02, 0.00, 0.00, 0.00
45, -187500.02, -187500.02, 4280.38, -187500.02, -187500.02, -187500.02, -187500.02, -187500.02, 0.00, 0.00, 0.00
46, -187500.02, -187500.02, 4299.63, -187500.02, -187500.02, -187500.02, -187500.02, -187500.02, 0.00, 0.00, 0.00
47, -187500.02, -187500.02, 4221.86, -187500.02, -187500.02, -187500.02, -187500.02, -187500.02, 0.00, 0.00, 0.00
48, -187500.02, -187500.02, 4206.22, -187500.02, -187500.02, -187500.02, -187500.02, -187500.02, 0.00, 0.00, 0.00
49, -187500.02, -187500.02, 4259.84, -187500.02, -187500.02, -187500.02, -187500.02, -187500.02, 0.00, 0.00, 0.00
50, -187500.02, -187500.02, 4251.55, -187500.02, -187500.02, -187500.02, -187500.02, -187500.02, 0.00, 0.00, 0.00
51, -187500.02, -187500.02, 4236.42, -187500.02, -187500.02, -187500.02, -187500.02, -187500.02, -0.01, 0.00, 1.03
52, -187500.02, -187500.02, 4223.12, -187500.02, -187500.02, -187500.02, -187500.02, -187500.02, 0.00, 0.00, 0.00
53, -187500.02, -187500.02, 4234.34, -187500.02, -187500.02, -187500.02, -187500.02, -187500.02, 0.00, 0.00, 0.00
54, -187500.02, -187500.02, 4283.67, -187500.02, -187500.02, -187500.02, -187500.02, -187500.02, 0.00, 0.00, 0.00
55, -187500.02, -187500.02, 4232.91, -187500.02, -187500.02, -187500.02, -187500.02, -187500.02, 0.00, 0.00, 0.00
56, -187500.02, -187500.02, 4212.88, -187500.02, -187500.02, -187500.02, -187500.02, -187500.02, 0.00, 0.00, 0.00
57, -187500.02, -187500.02, 4232.28, -187500.02, -187500.02, -187500.02, -187500.02, -187500.02, 0.00, 0.00, 0.00
58, -187500.02, -187500.02, 4261.20, -187500.02, -187500.02, -187500.02, -187500.02, -187500.02, 0.00, 0.00, 0.00
59, -187500.02, -187500.02, 4243.10, -187500.02, -187500.02, -187500.02, -187500.02, -187500.02, 0.00, 0.00, 0.00
60, -187500.02, -187500.02, 4224.10, -187500.02, -187500.02, -187500.02, -187500.02, -187500.02, 0.00, 0.00, 0.00
61, -187500.02, -187500.02, 4243.48, -187500.02, -187500.02, -187500.02, -187500.02, -187500.02, 0.00, 0.00, 0.00
62, -187500.02, -187500.02, 4260.11, -187500.02, -187500.02, -187500.02, -187500.02, -187500.02, -0.01, -0.00, 1.04
63, -187500.02, -187500.02, 4244.48, -187500.02, -187500.02, -187500.02, -187500.02, -187500.02, 0.00, 0.00, 0.00
64, -187500.02, -187500.02, 4210.22, -187500.02, -187500.02, -187500.02, -187500.02, -187500.02, 0.00, 0.00, 0.00
65, -187500.02, -187500.02, 4194.95, -187500.02, -187500.02, -187500.02, -187500.02, -187500.02, 0.00, 0.00, 0.00
66, -187500.02, -187500.02, 4264.87, -187500.02, -187500.02, -187500.02, -187500.02, -187500.02, 0.00, 0.00, 0.00
67, -187500.02, -187500.02, 4287.98, -187500.02, -187500.02, -187500.02, -187500.02, -187500.02, 0.00, 0.00, 0.00
68, -187500.02, -187500.02, 4211.27, -187500.02, -187500.02, -187500.02, -187500.02, -187500.02, 0.00, 0.00, 0.00
69, -187500.02, -187500.02, 4201.37, -187500.02, -187500.02, -187500.02, -187500.02, -187500.02, 0.00, 0.00, 0.00
70, -187500.02, -187500.02, 4233.08, -187500.02, -187500.02, -187500.02, -187500.02, -187500.02, 0.00, 0.00, 0.00
71, -187500.02, -187500.02, 4276.29, -187500.02, -187500.02, -187500.02, -187500.02, -187500.02, 0.00, 0.00, 0.00
72, -187500.02, -187500.02, 4251.99, -187500.02, -187500.02, -187500.02, -187500.02, -187500.02, -0.01, -0.00, 1.03
73, -187500.02, -187500.02, 4225.84, -187500.02, -187500.02, -187500.02, -187500.02, -187500.02, 0.00, 0.00, 0.00
74, -187500.02, -187500.02, 4240.75, -187500.02, -187500.02, -187500.02, -187500.02, -187500.02, 0.00, 0.00, 0.00
75, -187500.02, -187500.02, 4277.81, -187500.02, -187500.02, -187500.02, -187500.02, -187500.02, 0.00, 0.00, 0.00
76, -187500.02, -187500.02, 4225.33, -187500.02, -187500.02, -187500.02, -187500.02, -187500.02, 0.00, 0.00, 0.00
77, -187500.02, -187500.02, 4209.33, -187500.02, -187500.02, -187500.02, -187500.02, -187500.02, 0.00, 0.00, 0.00
78, -187500.02, -187500.02, 4232.75, -187500.02, -187500.02, -187500.02, -187500.02, -187500.02, 0.00, 0.00, 0.00
79, -187500.02, -187500.02, 4286.93, -187500.02, -187500.02, -187500.02, -187500.02, -187500.02, 0.00, 0.00, 0.00
80, -187500.02, -187500.02, 4214.40, -187500.02, -187500.02, -187500.02, -187500.02, -187500.02, 0.00, 0.00, 0.00
81, -187500.02, -187500.02, 4176.31, -187500.02, -187500.02, -187500.02, -187500.02, -187500.02, 0.00, 0.00, 0.00
82, -187500.02, -187500.02, 4200.29, -187500.02, -187500.02, -187500.02, -187500.02, -187500.02, -0.01, -0.01, 1.03
83, -187500.02, -187500.02, 4277.03, -187500.02, -187500.02, -187500.02, -187500.02, -187500.02, 0.00, 0.00, 0.00
84, -187500.02, -187500.02, 4247.68, -187500.02, -187500.02, -187500.02, -187500.02, -187500.02, 0.00, 0.00, 0.00
85, -187500.02, -187500.02, 4253.60, -187500.02, -187500.02, -187500.02, -187500.02, -187500.02, 0.00, 0.00, 0.00
86, -187500.02, -187500.02, 4267.84, -187500.02, -187500.02, -187500.02, -187500.02, -187500.02, 0.00, 0.00, 0.00
87, -187500.02, -187500.02, 4269.99, -187500.02, -187500.02, -187500.02, -187500.02, -187500.02, 0.00, 0.00, 0.00
88, -187500.02, -187500.02, 4241.31, -187500.02, -187500.02, -187500.02, -187500.02, -187500.02, 0.00, 0.00, 0.00
89, -187500.02, -187500.02, 4217.91, -187500.02, -187500.02, -187500.02, -187500.02, -187500.02, 0.00, 0.00, 0.00
90, -187500.02, -187500.02, 4242.74, -187500.02, -187500.02, -187500.02, -187500.02, -187500.02, 0.00, 0.00, 0.00
91, -187500.02, -187500.02, 4275.75, -187500.02, -187500.02, -187500.02, -187500.02, -187500.02, 0.00, 0.00, 0.00
92, -187500.02, -187500.02, 4255.71, -187500.02, -187500.02, -187500.02, -187500.02, -187500.02, -0.01, -0.01, 1.03
93, -187500.02, -187500.02, 4196.50, -187500.02, -187500.02, -187500.02, -187500.02, -187500.02, 0.00, 0.00, 0.00
94, -187500.02, -187500.02, 4238.65, -187500.02, -187500.02, -187500.02, -187500.02, -187500.02, 0.00, 0.00, 0.00
95, -187500.02, -187500.02, 4249.65, -187500.02, -187500.02, -187500.02, -187500.02, -187500.02, 0.00, 0.00, 0.00
96, -187500.02, -187500.02, 4259.48, -187500.02, -187500.02, -187500.02, -187500.02, -187500.02, 0.00, 0.00, 0.00
97, -187500.02, -187500.02, 4214.78, -187500.02, -187500.02, -187500.02, -187500.02, -187500.02, 0.00, 0.00, 0.00
98, -187500.02, -187500.02, 4206.80, -187500.02, -187500.02, -187500.02, -187500.02, -187500.02, 0.00, 0.00, 0.00
99, -187500.02, -187500.02, 4238.32, -187500.02, -187500.02, -187500.02, -187500.02, -187500.02, 0.00, 0.00, 0.00
100, -187500.02, -187500.02, 4257.69, -187500.02, -187500.02, -187500.02, -187500.02, -187500.02, 0.00, 0.00, 0.00
101, -187500.02, -187500.02, 4222.76, -187500.02, -187500.02, -187500.02, -187500.02, -187500.02, 0.00, 0.00, 0.00
102, -187500.02, -187500.02, 4198.62, -187500.02, -187500.02, -187500.02, -187500.02, -187500.02, -0.01, -0.01, 1.04
103, -187500.02, -187500.02, 4182.70, -187500.02, -187500.02, -187500.02, -187500.02, -187500.02, 0.00, 0.00, 0.00
104, -187500.02, -187500.02, 4242.74, -187500.02, -187500.02, -187500.02, -187500.02, -187500.02, 0.00, 0.00, 0.00
105, -187500.02, -187500.02, 4293.79, -187500.02, -187500.02, -187500.02, -187500.02, -187500.02, 0.00, 0.00, 0.00
106, -187500.02, -187500.02, 4242.90, -187500.02, -187500.02, -187500.02, -187500.02, -187500.02, 0.00, 0.00, 0.00
107, -187500.02, -187500.02, 4246.47, -187500.02, -187500.02, -187500.02, -187500.02, -187500.02, 0.00, 0.00, 0.00
108, -187500.02, -187500.02, 4273.45, -187500.02, -187500.02, -187500.02, -187500.02, -187500.02, 0.00, 0.00, 0.00
109, -187500.02, -187500.02, 4261.85, -187500.02, -187500.02, -187500.02, -187500.02, -187500.02, 0.00, 0.00, 0.00
110, -187500.02, -187500.02, 4236.17, -187500.02, -187500.02, -187500.02, -187500.02, -187500.02, 0.00, 0.00, 0.00
111, -187500.02, -187500.02, 4233.42, -187500.02, -187500.02, -187500.02, -187500.02, -187500.02, 0.00, 0.00, 0.00
112, -187500.02, -187500.02, 4252.62, -187500.02, -187500.02, -187500.02, -187500.02, -187500.02, -0.01, -0.00, 1.03
113, -187500.02, -187500.02, 4246.18, -187500.02, -187500.02, -187500.02, -187500.02, -187500.02, 0.00, 0.00, 0.00
114, -187500.02, -187500.02, 4195.91, -187500.02, -187500.02, -187500.02, -187500.02, -187500.02, 0.00, 0.00, 0.00
115, -187500.02, -187500.02, 4217.01, -187500.02, -187500.02, -187500.02, -187500.02, -187500.02, 0.00, 0.00, 0.00
116, -187500.02, -187500.02, 4225.78, -187500.02, -187500.02, -187500.02, -187500.02, -187500.02, 0.00, 0.00, 0.00
117, -187500.02, -187500.02, 4244.62, -187500.02, -187500.02, -187500.02, -187500.02, -187500.02, 0.00, 0.00, 0.00
118, -187500.02, -187500.02, 4214.78, -187500.02, -187500.02, -187500.02, -187500.02, -187500.02, 0.00, 0.00, 0.00
119, -187500.02, -187500.02, 4230.45, -187500.02, -187500.02, -187500.02, -187500.02, -187500.02, 0.00, 0.00, 0.00
120, -187500.02, -187500.02, 4196.99, -187500.02, -187500.02, -187500.02, -187500.02, -187500.02, 0.00, 0.00, 0.00
121, -187500.02, -187500.02, 4201.64, -187500.02, -187500.02, -187500.02, -187500.02, -187500.02, 0.00, 0.00, 0.00
122, -187500.02, -187500.02, 4293.30, -187500.02, -187500.02, -187500.02, -187500.02, -187500.02, -0.01, -0.01, 1.03
123, -187500.02, -187500.02, 4265.07, -187500.02, -187500.02, -187500.02, -187500.02, -187500.02, 0.00, 0.00, 0.00
124, -187500.02, -187500.02, 4256.53, -187500.02, -187500.02, -187500.02, -187500.02, -187500.02, 0.00, 0.00, 0.00
125, -187500.02, -187500.02, 4291.29, -187500.02, -187500.02, -187500.02, -187500.02, -187500.02, 0.00, 0.00, 0.00
126, -187500.02, -187500.02, 4243.21, -187500.02, -187500.02, -187500.02, -187500.02, -187500.02, 0.00, 0.00, 0.00
127, -187500.02, -187500.02, 4220.52, -187500.02, -187500.02, -187500.02, -187500.02, -187500.02, 0.00, 0.00, 0.00
128, -187500.02, -187500.02, 4225.42, -187500.02, -187500.02, -187500.02, -187500.02, -187500.02, 0.00, 0.00, 0.00
129, -187500.02, -187500.02, 4266.03, -187500.02, -187500.02, -187500.02, -187500.02, -187500.02, 0.00, 0.00, 0.00
130, -187500.02, -187500.02, 4245.74, -187500.02, -187500.02, -187500.02, -187500.02, -187500.02, 0.00, 0.00, 0.00
131, -187500.02, -187500.02, 4211.81, -187500.02, -187500.02, -187500.02, -187500.02, -187500.02, 0.00, 0.00, 0.00
132, -187500.02, -187500.02, 4234.58, -187500.02, -187500.02, -187500.02, -187500.02, -187500.02, 0.00, 0.00, 0.00
133, -187500.02, -187500.02, 4262.37, -187500.02, -187500.02, -187500.02, -187500.02, -187500.02, -0.01, -0.00, 1.03
134, -187500.02, -187500.02, 4251.26, -187500.02, -187500.02, -187500.02, -187500.02, -187500.02, 0.00, 0.00, 0.00
135, -187500.02, -187500.02, 4205.46, -187500.02, -187500.02, -187500.02, -187500.02, -187500.02, 0.00, 0.00, 0.00
136, -187500.02, -187500.02, 4201.90, -187500.02, -187500.02, -187500.02, -187500.02, -187500.02, 0.00, 0.00, 0.00
137, -187500.02, -187500.02, 4252.06, -187500.02, -187500.02, -187500.02, -187500.02, -187500.02, 0.00, 0.00, 0.00
138, -187500.02, -187500.02, 4263.10, -187500.02, -187500.02, -187500.02, -187500.02, -187500.02, 0.00, 0.00, 0.00
139, -187500.02, -187500.02, 4180.65, -187500.02, -187500.02, -187500.02, -187500.02, -187500.02, 0.00, 0.00, 0.00
140, -187500.02, -187500.02, 4190.68, -187500.02, -187500.02, -187500.02, -187500.02, -187500.02, 0.00, 0.00, 0.00
141, -187500.02, -187500.02, 4247.55, -187500.02, -187500.02, -187500.02, -187500.02, -187500.02, 0.00, 0.00, 0.00
142, -187500.02, -187500.02, 4259.59, -187500.02, -187500.02, -187500.02, -187500.02, -187500.02, 0.00, 0.00, 0.00
143, -187500.02, -187500.02, 4239.52, -187500.02, -187500.02, -187500.02, -187500.02, -187500.02, -0.01, -0.01, 1.04
144, -187500.02, -187500.02, 4227.83, -187500.02, -187500.02, -187500.02, -187500.02, -187500.02, 0.00, 0.00, 0.00
145, -187500.02, -187500.02, 4256.35, -187500.02, -187500.02, -187500.02, -187500.02, -187500.02, 0.00, 0.00, 0.00
146, -187500.02, -187500.02, 4270.01, -187500.02, -187500.02, -187500.02, -187500.02, -187500.02, 0.00, 0.00, 0.00
147, -187500.02, -187500.02, 4234.16, -187500.02, -187500.02, -187500.02, -187500.02, -187500.02, 0.00, 0.00, 0.00
148, -187500.02, -187500.02, 4218.24, -187500.02, -187500.02, -187500.02, -187500.02, -187500.02, 0.00, 0.00, 0.00
149, -187500.02, -187500.02, 4239.41, -187500.02, -187500.02, -187500.02, -187500.02, -187500.02, 0.00, 0.00, 0.00
150, -187500.02, -187500.02, 4252.15, -187500.02, -187500.02, -187500.02, -187500.02, -187500.02, 0.00, 0.00, 0.00
151, -187500.02, -187500.02, 4220.99, -187500.02, -187500.02, -187500.02, -187500.02, -187500.02, 0.00, 0.00, 0.00
152, -187500.02, -187500.02, 4186.91, -187500.02, -187500.02, -187500.02, -187500.02, -187500.02, 0.00, 0.00, 0.00
153, -187500.02, -187500.02, 4233.20, -187500.02, -187500.02, -187500.02, -187500.02, -187500.02, -0.01, -0.01, 1.03
154, -187500.02, -187500.02, 4218.11, -187500.02, -187500.02, -187500.02, -187500.02, -187500.02, 0.00, 0.00, 0.00
155, -187500.02, -187500.02, 4207.40, -187500.02, -187500.02, -187500.02, -187500.02, -187500.02, 0.00, 0.00, 0.00
156, -187500.02, -187500.02, 4231.61, -187500.02, -187500.02, -187500.02, -187500.02, -187500.02, 0.00, 0.00, 0.00
157, -187500.02, -187500.02, 4244.51, -187500.02, -187500.02, -187500.02, -187500.02, -187500.02, 0.00, 0.00, 0.00
158, -187500.02, -187500.02, 4238.09, -187500.02, -187500.02, -187500.02, -187500.02, -187500.02, 0.00, 0.00, 0.00
159, -187500.02, -187500.02, 4217.26, -187500.02, -187500.02, -187500.02, -187500.02, -187500.02, 0.00, 0.00, 0.00
160, -187500.02, -187500.02, 4221.13, -187500.02, -187500.02, -187500.02, -187500.02, -187500.02, 0.00, 0.00, 0.00
161, -187500.02, -187500.02, 4247.50, -187500.02, -187500.02, -187500.02, -187500.02, -187500.02, 0.00, 0.00, 0.00
162, -187500.02, -187500.02, 4268.89, -187500.02, -187500.02, -187500.02, -187500.02, -187500.02, 0.00, 0.00, 0.00
163, -187500.02, -187500.02, 4257.43, -187500.02, -187500.02, -187500.02, -187500.02, -187500.02, -0.01, -0.00, 1.04
164, -187500.02, -187500.02, 4206.24, -187500.02, -187500.02, -187500.02, -187500.02, -187500.02, 0.00, 0.00, 0.00
165, -187500.02, -187500.02, 4203.56, -187500.02, -187500.02, -187500.02, -187500.02, -187500.02, 0.00, 0.00, 0.00
166, -187500.02, -187500.02, 4243.21, -187500.02, -187500.02, -187500.02, -187500.02, -187500.02, 0.00, 0.00, 0.00
167, -187500.02, -187500.02, 4234.18, -187500.02, -187500.02, -187500.02, -187500.02, -187500.02, 0.00, 0.00, 0.00
168, -187500.02, -187500.02, 4230.49, -187500.02, -187500.02, -187500.02, -187500.02, -187500.02, 0.00, 0.00, 0.00
169, -187500.02, -187500.02, 4219.05, -187500.02, -187500.02, -187500.02, -187500.02, -187500.02, 0.00, 0.00, 0.00
170, -187500.02, -187500.02, 4243.25, -187500.02, -187500.02, -187500.02, -187500.02, -187500.02, 0.00, 0.00, 0.00
171, -187500.02, -187500.02, 4261.67, -187500.02, -187500.02, -187500.02, -187500.02, -187500.02, 0.00, 0.00, 0.00
172, -187500.02, -187500.02, 4216.68, -187500.02, -187500.02, -187500.02, -187500.02, -187500.02, 0.00, 0.00, 0.00
173, -187500.02, -187500.02, 4204.30, -187500.02, -187500.02, -187500.02, -187500.02, -187500.02, -0.01, -0.00, 1.04
174, -187500.02, -187500.02, 4217.13, -187500.02, -187500.02, -187500.02, -187500.02, -187500.02, 0.00, 0.00, 0.00
175, -187500.02, -187500.02, 4246.03, -187500.02, -187500.02, -187500.02, -187500.02, -187500.02, 0.00, 0.00, 0.00
176, -187500.02, -187500.02, 4199.24, -187500.02, -187500.02, -187500.02, -187500.02, -187500.02, 0.00, 0.00, 0.00
177, -187500.02, -187500.02, 4237.42, -187500.02, -187500.02, -187500.02, -187500.02, -187500.02, 0.00, 0.00, 0.00
178, -187500.02, -187500.02, 4253.94, -187500.02, -187500.02, -187500.02, -187500.02, -187500.02, 0.00, 0.00, 0.00
179, -187500.02, -187500.02, 4253.78, -187500.02, -187500.02, -187500.02, -187500.02, -187500.02, 0.00, 0.00, 0.00
180, -187500.02, -187500.02, 4221.24, -187500.02, -187500.02, -187500.02, -187500.02, -187500.02, 0.00, 0.00, 0.00
181, -187500.02, -187500.02, 4204.07, -187500.02, -187500.02, -187500.02, -187500.02, -187500.02, 0.00, 0.00, 0.00
182, -187500.02, -187500.02, 4239.88, -187500.02, -187500.02, -187500.02, -187500.02, -187500.02, 0.00, 0.00, 0.00
183, -187500.02, -187500.02, 4258.77, -187500.02, -187500.02, -187500.02, -187500.02, -187500.02, -0.01, 0.00, 1.03
184, -187500.02, -187500.02, 4246.23, -187500.02, -187500.02, -187500.02, -187500.02, -187500.02, 0.00, 0.00, 0.00
185, -187500.02, -187500.02, 4185.48, -187500.02, -187500.02, -187500.02, -187500.02, -187500.02, 0.00, 0.00, 0.00
186, -187500.02, -187500.02, 4180.87, -187500.02, -187500.02, -187500.02, -187500.02, -187500.02, 0.00, 0.00, 0.00
187, -187500.02, -187500.02, 4243.97, -187500.02, -187500.02, -187500.02, -187500.02, -187500.02, 0.00, 0.00, 0.00
188, -187500.02, -187500.02, 4266.90, -187500.02, -187500.02, -187500.02, -187500.02, -187500.02, 0.00, 0.00, 0.00
189, -187500.02, -187500.02, 4226.56, -187500.02, -187500.02, -187500.02, -187500.02, -187500.02, 0.00, 0.00, 0.00
190, -187500.02, -187500.02, 4212.57, -187500.02, -187500.02, -187500.02, -187500.02, -187500.02, 0.00, 0.00, 0.00
191, -187500.02, -187500.02, 4236.08, -187500.02, -187500.02, -187500.02, -187500.02, -187500.02, 0.00, 0.00, 0.00
192, -187500.02, -187500.02, 4237.91, -187500.02, -187500.02, -187500.02, -187500.02, -187500.02, 0.00, 0.00, 0.00
193, -187500.02, -187500.02, 4176.98, -187500.02, -187500.02, -187500.02, -187500.02, -187500.02, 0.00, 0.00, 0.00
194, -187500.02, -187500.02, 4219.32, -187500.02, -187500.02, -187500.02, -187500.02, -187500.02, -0.01, -0.00, 1.04
195, -187500.02, -187500.02, 4256.58, -187500.02, -187500.02, -187500.02, -187500.02, -187500.02, 0.00, 0.00, 0.00
196, -187500.02, -187500.02, 4252.96, -187500.02, -187500.02, -187500.02, -187500.02, -187500.02, 0.00, 0.00, 0.00
197, -187500.02, -187500.02, 4190.21, -187500.02, -187500.02, -187500.02, -187500.02, -187500.02, 0.00, 0.00, 0.00
198, -187500.02, -187500.02, 4189.07, -187500.02, -187500.02, -187500.02, -187500.02, -187500.02, 0.00, 0.00, 0.00
199, -187500.02, -187500.02, 4230.58, -187500.02, -187500.02, -187500.02, -187500.02, -187500.02, 0.00, 0.00, 0.00
200, -187500.02, -187500.02, 4285.41, -187500.02, -187500.02, -187500.02, -187500.02, -187500.02, 0.00, 0.00, 0.00
201, -187500.02, -187500.02, 4240.71, -187500.02, -187500.02, -187500.02, -187500.02, -187500.02, 0.00, 0.00, 0.00
202, -187500.02, -187500.02, 4207.36, -187500.02, -187500.02, -187500.02, -187500.02, -187500.02, 0.00, 0.00, 0.00
203, -187500.02, -187500.02, 4214.35, -187500.02, -187500.02, -187500.02, -187500.02, -187500.02, 0.00, 0.00, 0.00
204, -187500.02, -187500.02, 4227.63, -187500.02, -187500.02, -187500.02, -187500.02, -187500.02, -0.01, -0.00, 1.04
205, -187500.02, -187500.02, 4220.08, -187500.02, -187500.02, -187500.02, -187500.02, -187500.02, 0.00, 0.00, 0.00
206, -187500.02, -187500.02, 4202.11, -187500.02, -187500.02, -187500.02, -187500.02, -187500.02, 0.00, 0.00, 0.00
207, -187500.02, -187500.02, 4218.71, -187500.02, -187500.02, -187500.02, -187500.02, -187500.02, 0.00, 0.00, 0.00
208, -187500.02, -187500.02, 4255.21, -187500.02, -187500.02, -187500.02, -187500.02, -187500.02, 0.00, 0.00, 0.00
209, -187500.02, -187500.02, 4214.78, -187500.02, -187500.02, -187500.02, -187500.02, -187500.02, 0.00, 0.00, 0.00
210, -187500.02, -187500.02, 4190.08, -187500.02, -187500.02, -187500.02, -187500.02, -187500.02, 0.00, 0.00, 0.00
211, -187500.02, -187500.02, 4260.44, -187500.02, -187500.02, -187500.02, -187500.02, -187500.02, 0.00, 0.00, 0.00
212, -187500.02, -187500.02, 4266.28, -187500.02, -187500.02, -187500.02, -187500.02, -187500.02, 0.00, 0.00, 0.00
213, -187500.02, -187500.02, 4254.19, -187500.02, -187500.02, -187500.02, -187500.02, -187500.02, 0.00, 0.00, 0.00
214, -187500.02, -187500.02, 4202.08, -187500.02, -187500.02, -187500.02, -187500.02, -187500.02, -0.01, 0.00, 1.03
215, -187500.02, -187500.02, 4202.53, -187500.02, -187500.02, -187500.02, -187500.02, -187500.02, 0.00, 0.00, 0.00
216, -187500.02, -187500.02, 4231.10, -187500.02, -187500.02, -187500.02, -187500.02, -187500.02, 0.00, 0.00, 0.00
217, -187500.02, -187500.02, 4250.61, -187500.02, -187500.02, -187500.02, -187500.02, -187500.02, 0.00, 0.00, 0.00
218, -187500.02, -187500.02, 4222.13, -187500.02, -187500.02, -187500.02, -187500.02, -187500.02, 0.00, 0.00, 0.00
219, -187500.02, -187500.02, 4219.65, -187500.02, -187500.02, -187500.02, -187500.02, -187500.02, 0.00, 0.00, 0.00
220, -187500.02, -187500.02, 4236.46, -187500.02, -187500.02, -187500.02, -187500.02, -187500.02, 0.00, 0.00, 0.00
221, -187500.02, -187500.02, 4240.39, -187500.02, -187500.02, -187500.02, -187500.02, -187500.02, 0.00, 0.00, 0.00
222, -187500.02, -187500.02, 4204.88, -187500.02, -187500.02, -187500.02, -187500.02, -187500.02, 0.00, 0.00, 0.00
223, -187500.02, -187500.02, 4203.98, -187500.02, -187500.02, -187500.02, -187500.02, -187500.02, 0.00, 0.00, 0.00
224, -187500.02, -187500.02, 4214.89, -187500.02, -187500.02, -187500.02, -187500.02, -187500.02, -0.01, -0.00, 1.03
225, -187500.02, -187500.02, 4234.52, -187500.02, -187500.02, -187500.02, -187500.02, -187500.02, 0.00, 0.00, 0.00
226, -187500.02, -187500.02, 4201.32, -187500.02, -187500.02, -187500.02, -187500.02, -187500.02, 0.00, 0.00, 0.00
227, -187500.02, -187500.02, 4142.25, -187500.02, -187500.02, -187500.02, -187500.02, -187500.02, 0.00, 0.00, 0.00
228, -187500.02, -187500.02, 4179.37, -187500.02, -187500.02, -187500.02, -187500.02, -187500.02, 0.00, 0.00, 0.00
229, -187500.02, -187500.02, 4281.83, -187500.02, -187500.02, -187500.02, -187500.02, -187500.02, 0.00, 0.00, 0.00
230, -187500.02, -187500.02, 4260.49, -187500.02, -187500.02, -187500.02, -187500.02, -187500.02, 0.00, 0.00, 0.00
231, -187500.02, -187500.02, 4236.04, -187500.02, -187500.02, -187500.02, -187500.02, -187500.02, 0.00, 0.00, 0.00
232, -187500.02, -187500.02, 4246.41, -187500.02, -187500.02, -187500.02, -187500.02, -187500.02, 0.00, 0.00, 0.00
233, -187500.02, -187500.02, 4238.85, -187500.02, -187500.02, -187500.02, -187500.02, -187500.02, 0.00, 0.00, 0.00
234, -187500.02, -187500.02, 4230.34, -187500.02, -187500.02, -187500.02, -187500.02, -187500.02, -0.01, -0.01, 1.03
235, -187500.02, -187500.02, 4230.83, -187500.02, -187500.02, -187500.02, -187500.02, -187500.02, 0.00, 0.00, 0.00
236, -187500.02, -187500.02, 4216.72, -187500.02, -187500.02, -187500.02, -187500.02, -187500.02, 0.00, 0.00, 0.00
237, -187500.02, -187500.02, 4239.43, -187500.02, -187500.02, -187500.02, -187500.02, -187500.02, 0.00, 0.00, 0.00
238, -187500.02, -187500.02, 4243.34, -187500.02, -187500.02, -187500.02, -187500.02, -187500.02, 0.00, 0.00, 0.00
239, -187500.02, -187500.02, 4197.90, -187500.02, -187500.02, -187500.02, -187500.02, -187500.02, 0.00, 0.00, 0.00
240, -187500.02, -187500.02, 4210.15, -187500.02, -187500.02, -187500.02, -187500.02, -187500.02, 0.00, 0.00, 0.00
241, -187500.02, -187500.02, 4250.45, -187500.02, -187500.02, -187500.02, -187500.02, -187500.02, 0.00, 0.00, 0.00
242, -187500.02, -187500.02, 4264.71, -187500.02, -187500.02, -187500.02, -187500.02, -187500.02, 0.00, 0.00, 0.00
243, -187500.02, -187500.02, 4227.70, -187500.02, -187500.02, -187500.02, -187500.02, -187500.02, 0.00, 0.00, 0.00
244, -187500.02, -187500.02, 4193.43, -187500.02, -187500.02, -187500.02, -187500.02, -187500.02, -0.01, -0.01, 1.03
245, -187500.02, -187500.02, 4202.93, -187500.02, -187500.02, -187500.02, -187500.02, -187500.02, 0.00, 0.00, 0.00
246, -187500.02, -187500.02, 4213.17, -187500.02, -187500.02, -187500.02, -187500.02, -187500.02, 0.00, 0.00, 0.00
247, -187500.02, -187500.02, 4180.51, -187500.02, -187500.02, -187500.02, -187500.02, -187500.02, 0.00, 0.00, 0.00
248, -187500.02, -187500.02, 4251.06, -187500.02, -187500.02, -187500.02, -187500.02, -187500.02, 0.00, 0.00, 0.00
249, -187500.02, -187500.02, 4223.90, -187500.02, -187500.02, -187500.02, -187500.02, -187500.02, 0.00, 0.00, 0.00
250, -187500.02, -187500.02, 4254.05, -187500.02, -187500.02, -187500.02, -187500.02, -187500.02, 0.00, 0.00, 0.00
251, -187500.02, -187500.02, 4239.75, -187500.02, -187500.02, -187500.02, -187500.02, -187500.02, 0.00, 0.00, 0.00
252, -187500.02, -187500.02, 4206.06, -187500.02, -187500.02, -187500.02, -187500.02, -187500.02, 0.00, 0.00, 0.00
253, -187500.02, -187500.02, 4225.08, -187500.02, -187500.02, -187500.02, -187500.02, -187500.02, 0.00, 0.00, 0.00
254, -187500.02, -187500.02, 4255.12, -187500.02, -187500.02, -187500.02, -187500.02, -187500.02, 0.00, 0.00, 0.00
255, -187500.02, -187500.02, 4242.81, -187500.02, -187500.02, -187500.02, -187500.02, -187500.02, -0.01, -0.00, 1.03
0, -187500.02, -187500.02, 4198.98, -187500.02, -187500.02, -187500.02, -187500.02, -187500.02, 0.00, 0.00, 0.00
1, -187500.02, -187500.02, 4192.27, -187500.02, -187500.02, -187500.02, -187500.02, -187500.02, 0.00, 0.00, 0.00
2, -187500.02, -187500.02, 4242.65, -187500.02, -187500.02, -187500.02, -187500.02, -187500.02, 0.00, 0.00, 0.00
3, -187500.02, -187500.02, 4252.80, -187500.02, -187500.02, -187500.02, -187500.02, -187500.02, 0.00, 0.00, 0.00
4, -187500.02, -187500.02, 4216.16, -187500.02, -187500.02, -187500.02, -187500.02, -187500.02, 0.00, 0.00, 0.00
5, -187500.02, -187500.02, 4210.49, -187500.02, -187500.02, -187500.02, -187500.02, -187500.02, 0.00, 0.00, 0.00
6, -187500.02, -187500.02, 4232.35, -187500.02, -187500.02, -187500.02, -187500.02, -187500.02, 0.00, 0.00, 0.00
7, -187500.02, -187500.02, 4246.16, -187500.02, -187500.02, -187500.02, -187500.02, -187500.02, 0.00, 0.00, 0.00
8, -187500.02, -187500.02, 4194.60, -187500.02, -187500.02, -187500.02, -187500.02, -187500.02, 0.00, 0.00, 0.00
9, -187500.02, -187500.02, 4179.24, -187500.02, -187500.02, -187500.02, -187500.02, -187500.02, -0.01, 0.00, 1.03
10, -187500.02, -187500.02, 4216.79, -187500.02, -187500.02, -187500.02, -187500.02, -187500.02, 0.00, 0.00, 0.00
11, -187500.02, -187500.02, 4247.93, -187500.02, -187500.02, -187500.02, -187500.02, -187500.02, 0.00, 0.00, 0.00
12, -187500.02, -187500.02, 4237.76, -187500.02, -187500.02, -187500.02, -187500.02, -187500.02, 0.00, 0.00, 0.00
13, -187500.02, -187500.02, 4200.88, -187500.02, -187500.02, -187500.02, -187500.02, -187500.02, 0.00, 0.00, 0.00
14, -187500.02, -187500.02, 4208.56, -187500.02, -187500.02, -187500.02, -187500.02, -187500.02, 0.00, 0.00, 0.00
15, -187500.02, -187500.02, 4213.17, -187500.02, -187500.02, -187500.02, -187500.02, -187500.02, 0.00, 0.00, 0.00
16, -187500.02, -187500.02, 4210.42, -187500.02, -187500.02, -187500.02, -187500.02, -187500.02, 0.00, 0.00, 0.00
17, -187500.02, -187500.02, 4210.91, -187500.02, -187500.02, -187500.02, -187500.02, -187500.02, 0.00, 0.00, 0.00
18, -187500.02, -187500.02, 4226.56, -187500.02, -187500.02, -187500.02, -187500.02, -187500.02, 0.00, 0.00, 0.00
19, -187500.02, -187500.02, 4267.13, -187500.02, -187500.02, -187500.02, -187500.02, -187500.02, -0.01, 0.00, 1.04
